Input File: 00NSOUT.78D
Measure Group: FFT
Measurement: FFT 1
Num of extracted Points: 401
Start Freq: -0 Hz
Span: 1.6 kHz
FFT Lines:  400 
Window: BMH
Averaging Mode: RMS
Averaging Type: Exp. / Cont.
Number of Avg:   79
Overload reject: Off

    X[Hz]      Vrms/Hz^(1/... 
  0.000000e+00   1.098478e+00 
  4.000000e+00   7.475658e-01 
  8.000000e+00   2.162963e-01 
  1.200000e+01   1.787918e-02 
  1.600000e+01   2.768161e-04 
  2.000000e+01   1.879501e-04 
  2.400000e+01   1.259503e-04 
  2.800000e+01   8.476588e-05 
  3.200000e+01   6.314873e-05 
  3.600000e+01   5.237909e-05 
  4.000000e+01   4.614335e-05 
  4.400000e+01   4.393454e-05 
  4.800000e+01   3.937740e-05 
  5.200000e+01   3.451866e-05 
  5.600000e+01   3.357956e-05 
  6.000000e+01   3.561685e-05 
  6.400000e+01   3.182327e-05 
  6.800000e+01   2.775815e-05 
  7.200000e+01   2.714159e-05 
  7.600000e+01   2.629145e-05 
  8.000000e+01   2.318655e-05 
  8.400000e+01   2.161918e-05 
  8.800000e+01   2.005094e-05 
  9.200000e+01   1.890008e-05 
  9.600000e+01   1.965953e-05 
  1.000000e+02   2.122501e-05 
  1.040000e+02   2.072570e-05 
  1.080000e+02   1.876382e-05 
  1.120000e+02   1.802135e-05 
  1.160000e+02   3.232373e-05 
  1.200000e+02   4.497148e-05 
  1.240000e+02   3.198819e-05 
  1.280000e+02   1.627452e-05 
  1.320000e+02   1.521953e-05 
  1.360000e+02   1.684319e-05 
  1.400000e+02   1.698339e-05 
  1.440000e+02   1.497419e-05 
  1.480000e+02   1.363167e-05 
  1.520000e+02   1.416896e-05 
  1.560000e+02   1.548216e-05 
  1.600000e+02   1.809802e-05 
  1.640000e+02   2.194498e-05 
  1.680000e+02   2.502296e-05 
  1.720000e+02   2.899413e-05 
  1.760000e+02   4.681641e-05 
  1.800000e+02   8.640473e-05 
  1.840000e+02   1.043778e-04 
  1.880000e+02   7.323487e-05 
  1.920000e+02   3.802018e-05 
  1.960000e+02   2.393027e-05 
  2.000000e+02   1.741514e-05 
  2.040000e+02   1.537867e-05 
  2.080000e+02   1.517767e-05 
  2.120000e+02   1.450841e-05 
  2.160000e+02   1.486986e-05 
  2.200000e+02   1.418316e-05 
  2.240000e+02   1.334653e-05 
  2.280000e+02   1.367837e-05 
  2.320000e+02   1.371231e-05 
  2.360000e+02   1.276077e-05 
  2.400000e+02   1.240444e-05 
  2.440000e+02   1.244884e-05 
  2.480000e+02   1.198168e-05 
  2.520000e+02   1.133376e-05 
  2.560000e+02   1.165006e-05 
  2.600000e+02   1.141494e-05 
  2.640000e+02   1.100462e-05 
  2.680000e+02   1.117009e-05 
  2.720000e+02   1.097345e-05 
  2.760000e+02   1.071061e-05 
  2.800000e+02   1.219517e-05 
  2.840000e+02   1.463634e-05 
  2.880000e+02   1.532987e-05 
  2.920000e+02   1.335740e-05 
  2.960000e+02   1.063604e-05 
  3.000000e+02   1.071381e-05 
  3.040000e+02   1.344248e-05 
  3.080000e+02   1.998439e-05 
  3.120000e+02   2.177719e-05 
  3.160000e+02   1.611180e-05 
  3.200000e+02   1.167925e-05 
  3.240000e+02   1.000991e-05 
  3.280000e+02   9.782299e-06 
  3.320000e+02   1.002214e-05 
  3.360000e+02   1.058629e-05 
  3.400000e+02   1.064783e-05 
  3.440000e+02   9.860380e-06 
  3.480000e+02   8.992888e-06 
  3.520000e+02   8.697923e-06 
  3.560000e+02   8.898081e-06 
  3.600000e+02   9.501488e-06 
  3.640000e+02   9.838109e-06 
  3.680000e+02   9.409650e-06 
  3.720000e+02   9.389485e-06 
  3.760000e+02   1.031153e-05 
  3.800000e+02   1.200503e-05 
  3.840000e+02   1.799743e-05 
  3.880000e+02   2.690096e-05 
  3.920000e+02   2.853574e-05 
  3.960000e+02   2.162776e-05 
  4.000000e+02   1.726635e-05 
  4.040000e+02   2.108963e-05 
  4.080000e+02   3.298597e-05 
  4.120000e+02   4.600142e-05 
  4.160000e+02   5.295391e-05 
  4.200000e+02   4.864589e-05 
  4.240000e+02   3.387872e-05 
  4.280000e+02   1.931998e-05 
  4.320000e+02   1.252529e-05 
  4.360000e+02   9.443614e-06 
  4.400000e+02   7.423981e-06 
  4.440000e+02   7.074302e-06 
  4.480000e+02   7.063481e-06 
  4.520000e+02   6.915697e-06 
  4.560000e+02   6.714363e-06 
  4.600000e+02   6.776306e-06 
  4.640000e+02   6.663176e-06 
  4.680000e+02   6.265594e-06 
  4.720000e+02   5.659689e-06 
  4.760000e+02   5.447173e-06 
  4.800000e+02   5.863156e-06 
  4.840000e+02   5.593977e-06 
  4.880000e+02   5.700583e-06 
  4.920000e+02   6.693748e-06 
  4.960000e+02   8.681802e-06 
  5.000000e+02   1.307470e-05 
  5.040000e+02   1.738567e-05 
  5.080000e+02   1.968535e-05 
  5.120000e+02   1.785806e-05 
  5.160000e+02   1.108727e-05 
  5.200000e+02   6.606113e-06 
  5.240000e+02   5.682502e-06 
  5.280000e+02   5.284912e-06 
  5.320000e+02   5.585450e-06 
  5.360000e+02   5.820300e-06 
  5.400000e+02   5.841432e-06 
  5.440000e+02   6.681764e-06 
  5.480000e+02   8.269989e-06 
  5.520000e+02   9.379349e-06 
  5.560000e+02   9.403332e-06 
  5.600000e+02   1.190104e-05 
  5.640000e+02   1.727930e-05 
  5.680000e+02   2.674317e-05 
  5.720000e+02   4.066038e-05 
  5.760000e+02   4.170891e-05 
  5.800000e+02   2.559956e-05 
  5.840000e+02   1.263021e-05 
  5.880000e+02   8.874499e-06 
  5.920000e+02   7.510141e-06 
  5.960000e+02   7.091071e-06 
  6.000000e+02   6.537266e-06 
  6.040000e+02   5.564073e-06 
  6.080000e+02   5.040383e-06 
  6.120000e+02   6.653366e-06 
  6.160000e+02   8.771945e-06 
  6.200000e+02   7.986212e-06 
  6.240000e+02   6.068203e-06 
  6.280000e+02   6.540239e-06 
  6.320000e+02   9.194676e-06 
  6.360000e+02   1.352868e-05 
  6.400000e+02   2.182727e-05 
  6.440000e+02   3.305560e-05 
  6.480000e+02   3.494294e-05 
  6.520000e+02   2.430422e-05 
  6.560000e+02   1.363731e-05 
  6.600000e+02   1.319087e-05 
  6.640000e+02   1.388621e-05 
  6.680000e+02   1.332201e-05 
  6.720000e+02   1.576689e-05 
  6.760000e+02   1.567132e-05 
  6.800000e+02   1.259665e-05 
  6.840000e+02   1.187025e-05 
  6.880000e+02   1.652504e-05 
  6.920000e+02   3.010113e-05 
  6.960000e+02   3.978540e-05 
  7.000000e+02   3.160255e-05 
  7.040000e+02   1.693874e-05 
  7.080000e+02   1.090707e-05 
  7.120000e+02   1.013641e-05 
  7.160000e+02   8.160061e-06 
  7.200000e+02   6.254731e-06 
  7.240000e+02   5.827230e-06 
  7.280000e+02   7.082348e-06 
  7.320000e+02   9.297903e-06 
  7.360000e+02   1.163434e-05 
  7.400000e+02   1.151293e-05 
  7.440000e+02   1.305264e-05 
  7.480000e+02   1.548805e-05 
  7.520000e+02   1.286129e-05 
  7.560000e+02   8.320060e-06 
  7.600000e+02   5.587548e-06 
  7.640000e+02   4.796875e-06 
  7.680000e+02   5.058926e-06 
  7.720000e+02   5.563159e-06 
  7.760000e+02   6.198841e-06 
  7.800000e+02   6.997776e-06 
  7.840000e+02   9.928954e-06 
  7.880000e+02   1.516535e-05 
  7.920000e+02   1.887870e-05 
  7.960000e+02   1.663587e-05 
  8.000000e+02   1.116575e-05 
  8.040000e+02   1.018856e-05 
  8.080000e+02   1.331321e-05 
  8.120000e+02   1.336314e-05 
  8.160000e+02   1.086239e-05 
  8.200000e+02   1.125454e-05 
  8.240000e+02   1.202302e-05 
  8.280000e+02   1.029510e-05 
  8.320000e+02   7.491273e-06 
  8.360000e+02   6.269137e-06 
  8.400000e+02   5.895275e-06 
  8.440000e+02   6.151654e-06 
  8.480000e+02   8.023010e-06 
  8.520000e+02   1.034980e-05 
  8.560000e+02   1.028719e-05 
  8.600000e+02   8.517974e-06 
  8.640000e+02   9.446557e-06 
  8.680000e+02   1.862078e-05 
  8.720000e+02   3.030113e-05 
  8.760000e+02   3.155801e-05 
  8.800000e+02   2.280911e-05 
  8.840000e+02   1.563593e-05 
  8.880000e+02   1.838039e-05 
  8.920000e+02   3.916971e-05 
  8.960000e+02   6.447495e-05 
  9.000000e+02   7.311712e-05 
  9.040000e+02   6.342276e-05 
  9.080000e+02   5.082876e-05 
  9.120000e+02   4.305195e-05 
  9.160000e+02   4.875466e-05 
  9.200000e+02   5.686658e-05 
  9.240000e+02   5.354396e-05 
  9.280000e+02   3.622021e-05 
  9.320000e+02   2.024388e-05 
  9.360000e+02   1.728476e-05 
  9.400000e+02   1.769320e-05 
  9.440000e+02   1.637706e-05 
  9.480000e+02   1.472674e-05 
  9.520000e+02   1.263349e-05 
  9.560000e+02   1.163147e-05 
  9.600000e+02   1.219579e-05 
  9.640000e+02   1.329651e-05 
  9.680000e+02   1.624562e-05 
  9.720000e+02   1.855076e-05 
  9.760000e+02   1.778234e-05 
  9.800000e+02   1.707498e-05 
  9.840000e+02   2.024263e-05 
  9.880000e+02   2.195860e-05 
  9.920000e+02   1.965019e-05 
  9.960000e+02   1.719409e-05 
  1.000000e+03   1.563954e-05 
  1.004000e+03   1.656055e-05 
  1.008000e+03   1.939693e-05 
  1.012000e+03   2.315467e-05 
  1.016000e+03   2.371436e-05 
  1.020000e+03   1.967197e-05 
  1.024000e+03   1.581276e-05 
  1.028000e+03   1.727634e-05 
  1.032000e+03   2.181141e-05 
  1.036000e+03   2.475170e-05 
  1.040000e+03   2.461023e-05 
  1.044000e+03   2.493434e-05 
  1.048000e+03   1.981282e-05 
  1.052000e+03   2.003855e-05 
  1.056000e+03   2.544294e-05 
  1.060000e+03   3.255824e-05 
  1.064000e+03   5.766833e-05 
  1.068000e+03   1.052812e-04 
  1.072000e+03   1.380351e-04 
  1.076000e+03   1.435747e-04 
  1.080000e+03   1.428441e-04 
  1.084000e+03   1.568658e-04 
  1.088000e+03   2.047441e-04 
  1.092000e+03   2.830811e-04 
  1.096000e+03   3.777042e-04 
  1.100000e+03   4.377570e-04 
  1.104000e+03   4.293784e-04 
  1.108000e+03   3.408479e-04 
  1.112000e+03   2.140979e-04 
  1.116000e+03   1.247194e-04 
  1.120000e+03   9.323211e-05 
  1.124000e+03   8.272969e-05 
  1.128000e+03   7.597343e-05 
  1.132000e+03   8.757732e-05 
  1.136000e+03   1.013980e-04 
  1.140000e+03   1.147439e-04 
  1.144000e+03   1.522967e-04 
  1.148000e+03   1.995127e-04 
  1.152000e+03   2.120208e-04 
  1.156000e+03   1.795738e-04 
  1.160000e+03   1.419791e-04 
  1.164000e+03   1.483952e-04 
  1.168000e+03   1.829476e-04 
  1.172000e+03   2.116755e-04 
  1.176000e+03   2.261887e-04 
  1.180000e+03   2.263777e-04 
  1.184000e+03   2.113385e-04 
  1.188000e+03   1.929830e-04 
  1.192000e+03   1.781945e-04 
  1.196000e+03   1.591682e-04 
  1.200000e+03   1.558310e-04 
  1.204000e+03   1.550276e-04 
  1.208000e+03   1.289236e-04 
  1.212000e+03   1.140119e-04 
  1.216000e+03   1.257113e-04 
  1.220000e+03   1.773778e-04 
  1.224000e+03   2.235747e-04 
  1.228000e+03   2.200218e-04 
  1.232000e+03   2.084564e-04 
  1.236000e+03   1.893312e-04 
  1.240000e+03   1.908209e-04 
  1.244000e+03   2.025764e-04 
  1.248000e+03   1.948256e-04 
  1.252000e+03   2.113226e-04 
  1.256000e+03   2.889819e-04 
  1.260000e+03   3.856058e-04 
  1.264000e+03   4.492724e-04 
  1.268000e+03   5.391496e-04 
  1.272000e+03   6.673145e-04 
  1.276000e+03   7.380651e-04 
  1.280000e+03   6.998382e-04 
  1.284000e+03   6.538766e-04 
  1.288000e+03   6.411879e-04 
  1.292000e+03   6.215975e-04 
  1.296000e+03   6.128626e-04 
  1.300000e+03   5.487922e-04 
  1.304000e+03   4.550286e-04 
  1.308000e+03   4.153978e-04 
  1.312000e+03   4.573955e-04 
  1.316000e+03   5.056338e-04 
  1.320000e+03   4.182017e-04 
  1.324000e+03   3.107638e-04 
  1.328000e+03   3.126355e-04 
  1.332000e+03   3.469872e-04 
  1.336000e+03   3.736598e-04 
  1.340000e+03   4.670531e-04 
  1.344000e+03   6.245948e-04 
  1.348000e+03   7.789955e-04 
  1.352000e+03   7.943176e-04 
  1.356000e+03   6.471809e-04 
  1.360000e+03   4.911339e-04 
  1.364000e+03   3.873986e-04 
  1.368000e+03   3.826199e-04 
  1.372000e+03   4.043429e-04 
  1.376000e+03   3.734500e-04 
  1.380000e+03   2.914698e-04 
  1.384000e+03   1.825468e-04 
  1.388000e+03   9.747703e-05 
  1.392000e+03   7.907656e-05 
  1.396000e+03   7.321147e-05 
  1.400000e+03   7.654430e-05 
  1.404000e+03   9.005229e-05 
  1.408000e+03   1.025259e-04 
  1.412000e+03   1.088331e-04 
  1.416000e+03   1.044603e-04 
  1.420000e+03   9.548373e-05 
  1.424000e+03   8.632955e-05 
  1.428000e+03   7.405962e-05 
  1.432000e+03   5.559643e-05 
  1.436000e+03   3.989650e-05 
  1.440000e+03   3.562450e-05 
  1.444000e+03   4.152732e-05 
  1.448000e+03   4.714683e-05 
  1.452000e+03   4.241711e-05 
  1.456000e+03   4.509027e-05 
  1.460000e+03   5.962611e-05 
  1.464000e+03   8.002685e-05 
  1.468000e+03   1.216778e-04 
  1.472000e+03   1.791349e-04 
  1.476000e+03   2.093011e-04 
  1.480000e+03   1.945294e-04 
  1.484000e+03   1.825374e-04 
  1.488000e+03   1.738424e-04 
  1.492000e+03   1.565229e-04 
  1.496000e+03   1.487133e-04 
  1.500000e+03   1.423426e-04 
  1.504000e+03   1.322840e-04 
  1.508000e+03   1.320632e-04 
  1.512000e+03   1.344389e-04 
  1.516000e+03   1.262216e-04 
  1.520000e+03   1.137947e-04 
  1.524000e+03   8.986897e-05 
  1.528000e+03   6.230910e-05 
  1.532000e+03   4.407304e-05 
  1.536000e+03   4.257748e-05 
  1.540000e+03   4.844591e-05 
  1.544000e+03   5.014483e-05 
  1.548000e+03   4.324530e-05 
  1.552000e+03   3.318884e-05 
  1.556000e+03   2.653288e-05 
  1.560000e+03   2.346353e-05 
  1.564000e+03   2.532294e-05 
  1.568000e+03   2.744401e-05 
  1.572000e+03   2.403000e-05 
  1.576000e+03   2.317532e-05 
  1.580000e+03   2.484523e-05 
  1.584000e+03   3.021892e-05 
  1.588000e+03   4.172904e-05 
  1.592000e+03   3.929511e-05 
  1.596000e+03   3.374225e-05 
  1.600000e+03   3.709843e-05 
