Input File: 00NSIN.78D
Measure Group: FFT
Measurement: FFT 1
Num of extracted Points: 401
Start Freq: -0 Hz
Span: 1.6 kHz
FFT Lines:  400 
Window: BMH
Averaging Mode: RMS
Averaging Type: Exp. / Cont.
Number of Avg:  100
Overload reject: Off

    X[Hz]      Vrms/Hz^(1/... 
  0.000000e+00   2.029041e-03 
  4.000000e+00   1.380961e-03 
  8.000000e+00   3.998261e-04 
  1.200000e+01   3.349013e-05 
  1.600000e+01   2.292080e-06 
  2.000000e+01   2.093218e-06 
  2.400000e+01   1.870766e-06 
  2.800000e+01   1.778499e-06 
  3.200000e+01   1.641997e-06 
  3.600000e+01   1.512672e-06 
  4.000000e+01   1.510326e-06 
  4.400000e+01   1.504244e-06 
  4.800000e+01   1.352610e-06 
  5.200000e+01   2.358507e-06 
  5.600000e+01   6.898327e-06 
  6.000000e+01   9.979851e-06 
  6.400000e+01   6.843314e-06 
  6.800000e+01   2.267246e-06 
  7.200000e+01   1.125073e-06 
  7.600000e+01   1.124968e-06 
  8.000000e+01   1.059710e-06 
  8.400000e+01   1.025162e-06 
  8.800000e+01   1.075528e-06 
  9.200000e+01   1.093561e-06 
  9.600000e+01   1.063318e-06 
  1.000000e+02   1.018658e-06 
  1.040000e+02   9.745403e-07 
  1.080000e+02   9.548219e-07 
  1.120000e+02   9.439244e-07 
  1.160000e+02   9.720122e-07 
  1.200000e+02   1.027763e-06 
  1.240000e+02   9.561485e-07 
  1.280000e+02   9.285872e-07 
  1.320000e+02   9.600169e-07 
  1.360000e+02   8.997628e-07 
  1.400000e+02   8.160818e-07 
  1.440000e+02   7.958019e-07 
  1.480000e+02   8.017689e-07 
  1.520000e+02   8.121049e-07 
  1.560000e+02   7.912109e-07 
  1.600000e+02   7.652710e-07 
  1.640000e+02   7.913848e-07 
  1.680000e+02   8.581413e-07 
  1.720000e+02   1.216270e-06 
  1.760000e+02   3.122352e-06 
  1.800000e+02   4.443722e-06 
  1.840000e+02   3.042996e-06 
  1.880000e+02   1.174937e-06 
  1.920000e+02   8.617261e-07 
  1.960000e+02   8.206563e-07 
  2.000000e+02   7.614191e-07 
  2.040000e+02   7.687512e-07 
  2.080000e+02   8.264114e-07 
  2.120000e+02   8.252041e-07 
  2.160000e+02   7.907038e-07 
  2.200000e+02   7.948541e-07 
  2.240000e+02   7.730639e-07 
  2.280000e+02   7.725288e-07 
  2.320000e+02   7.623044e-07 
  2.360000e+02   7.370994e-07 
  2.400000e+02   7.487476e-07 
  2.440000e+02   7.428114e-07 
  2.480000e+02   7.287364e-07 
  2.520000e+02   7.339987e-07 
  2.560000e+02   7.467474e-07 
  2.600000e+02   7.261060e-07 
  2.640000e+02   7.153257e-07 
  2.680000e+02   7.010486e-07 
  2.720000e+02   6.807288e-07 
  2.760000e+02   7.174635e-07 
  2.800000e+02   7.445606e-07 
  2.840000e+02   7.665870e-07 
  2.880000e+02   7.483900e-07 
  2.920000e+02   1.001779e-06 
  2.960000e+02   2.486433e-06 
  3.000000e+02   3.525652e-06 
  3.040000e+02   2.431135e-06 
  3.080000e+02   9.435101e-07 
  3.120000e+02   7.129855e-07 
  3.160000e+02   7.704280e-07 
  3.200000e+02   7.615810e-07 
  3.240000e+02   7.172864e-07 
  3.280000e+02   6.950970e-07 
  3.320000e+02   7.201078e-07 
  3.360000e+02   7.402997e-07 
  3.400000e+02   7.247228e-07 
  3.440000e+02   7.356477e-07 
  3.480000e+02   7.284343e-07 
  3.520000e+02   7.008289e-07 
  3.560000e+02   7.190234e-07 
  3.600000e+02   7.198444e-07 
  3.640000e+02   7.014222e-07 
  3.680000e+02   6.748585e-07 
  3.720000e+02   6.772289e-07 
  3.760000e+02   7.075535e-07 
  3.800000e+02   7.172007e-07 
  3.840000e+02   7.278308e-07 
  3.880000e+02   7.234198e-07 
  3.920000e+02   7.326806e-07 
  3.960000e+02   7.169181e-07 
  4.000000e+02   6.842725e-07 
  4.040000e+02   6.902418e-07 
  4.080000e+02   7.017167e-07 
  4.120000e+02   7.374156e-07 
  4.160000e+02   1.092464e-06 
  4.200000e+02   1.393647e-06 
  4.240000e+02   1.068249e-06 
  4.280000e+02   7.528967e-07 
  4.320000e+02   7.187864e-07 
  4.360000e+02   7.003633e-07 
  4.400000e+02   6.982467e-07 
  4.440000e+02   7.106155e-07 
  4.480000e+02   7.269528e-07 
  4.520000e+02   7.012156e-07 
  4.560000e+02   6.579933e-07 
  4.600000e+02   6.959539e-07 
  4.640000e+02   7.629813e-07 
  4.680000e+02   7.263245e-07 
  4.720000e+02   6.589612e-07 
  4.760000e+02   6.305291e-07 
  4.800000e+02   6.244371e-07 
  4.840000e+02   6.645704e-07 
  4.880000e+02   7.087283e-07 
  4.920000e+02   6.973036e-07 
  4.960000e+02   6.485610e-07 
  5.000000e+02   6.573487e-07 
  5.040000e+02   7.315540e-07 
  5.080000e+02   7.622715e-07 
  5.120000e+02   7.437767e-07 
  5.160000e+02   7.001110e-07 
  5.200000e+02   6.868822e-07 
  5.240000e+02   6.617936e-07 
  5.280000e+02   6.638329e-07 
  5.320000e+02   6.872073e-07 
  5.360000e+02   9.438650e-07 
  5.400000e+02   1.241353e-06 
  5.440000e+02   1.011152e-06 
  5.480000e+02   7.243599e-07 
  5.520000e+02   6.624528e-07 
  5.560000e+02   6.500991e-07 
  5.600000e+02   6.455793e-07 
  5.640000e+02   6.740301e-07 
  5.680000e+02   6.765555e-07 
  5.720000e+02   7.186221e-07 
  5.760000e+02   7.764402e-07 
  5.800000e+02   7.555705e-07 
  5.840000e+02   7.154168e-07 
  5.880000e+02   6.991467e-07 
  5.920000e+02   7.123047e-07 
  5.960000e+02   6.978757e-07 
  6.000000e+02   6.921117e-07 
  6.040000e+02   7.156187e-07 
  6.080000e+02   7.512338e-07 
  6.120000e+02   7.458347e-07 
  6.160000e+02   6.952042e-07 
  6.200000e+02   6.543753e-07 
  6.240000e+02   6.505671e-07 
  6.280000e+02   6.553277e-07 
  6.320000e+02   6.385903e-07 
  6.360000e+02   6.838995e-07 
  6.400000e+02   7.246381e-07 
  6.440000e+02   7.263627e-07 
  6.480000e+02   7.244579e-07 
  6.520000e+02   7.137006e-07 
  6.560000e+02   8.545604e-07 
  6.600000e+02   1.022355e-06 
  6.640000e+02   8.830165e-07 
  6.680000e+02   7.146300e-07 
  6.720000e+02   6.915562e-07 
  6.760000e+02   6.905686e-07 
  6.800000e+02   6.689058e-07 
  6.840000e+02   6.645637e-07 
  6.880000e+02   7.299246e-07 
  6.920000e+02   8.685221e-07 
  6.960000e+02   9.687046e-07 
  7.000000e+02   8.469226e-07 
  7.040000e+02   7.128205e-07 
  7.080000e+02   7.035583e-07 
  7.120000e+02   7.006636e-07 
  7.160000e+02   7.088482e-07 
  7.200000e+02   6.887834e-07 
  7.240000e+02   6.580968e-07 
  7.280000e+02   6.796145e-07 
  7.320000e+02   6.931151e-07 
  7.360000e+02   6.931692e-07 
  7.400000e+02   6.658873e-07 
  7.440000e+02   6.662701e-07 
  7.480000e+02   7.057568e-07 
  7.520000e+02   7.217008e-07 
  7.560000e+02   6.995627e-07 
  7.600000e+02   6.599406e-07 
  7.640000e+02   6.260917e-07 
  7.680000e+02   6.305935e-07 
  7.720000e+02   6.110626e-07 
  7.760000e+02   6.514032e-07 
  7.800000e+02   7.292724e-07 
  7.840000e+02   6.928990e-07 
  7.880000e+02   6.858197e-07 
  7.920000e+02   7.254999e-07 
  7.960000e+02   7.190475e-07 
  8.000000e+02   6.996029e-07 
  8.040000e+02   6.963406e-07 
  8.080000e+02   6.769710e-07 
  8.120000e+02   6.818041e-07 
  8.160000e+02   6.741898e-07 
  8.200000e+02   6.667411e-07 
  8.240000e+02   6.708999e-07 
  8.280000e+02   6.511510e-07 
  8.320000e+02   6.194931e-07 
  8.360000e+02   6.421429e-07 
  8.400000e+02   6.942140e-07 
  8.440000e+02   7.037993e-07 
  8.480000e+02   7.000476e-07 
  8.520000e+02   6.913533e-07 
  8.560000e+02   6.746531e-07 
  8.600000e+02   6.974439e-07 
  8.640000e+02   7.389705e-07 
  8.680000e+02   7.591435e-07 
  8.720000e+02   8.561832e-07 
  8.760000e+02   8.696125e-07 
  8.800000e+02   7.520433e-07 
  8.840000e+02   6.762513e-07 
  8.880000e+02   7.387479e-07 
  8.920000e+02   9.912631e-07 
  8.960000e+02   1.370566e-06 
  9.000000e+02   1.555311e-06 
  9.040000e+02   1.319133e-06 
  9.080000e+02   1.022846e-06 
  9.120000e+02   1.017316e-06 
  9.160000e+02   1.203392e-06 
  9.200000e+02   1.331706e-06 
  9.240000e+02   1.245914e-06 
  9.280000e+02   1.014760e-06 
  9.320000e+02   8.838763e-07 
  9.360000e+02   8.600479e-07 
  9.400000e+02   8.314142e-07 
  9.440000e+02   7.669664e-07 
  9.480000e+02   7.046301e-07 
  9.520000e+02   6.870018e-07 
  9.560000e+02   7.157635e-07 
  9.600000e+02   7.161738e-07 
  9.640000e+02   7.380692e-07 
  9.680000e+02   7.733668e-07 
  9.720000e+02   7.553732e-07 
  9.760000e+02   7.527692e-07 
  9.800000e+02   7.790576e-07 
  9.840000e+02   8.174162e-07 
  9.880000e+02   8.518780e-07 
  9.920000e+02   8.327786e-07 
  9.960000e+02   7.609908e-07 
  1.000000e+03   7.429404e-07 
  1.004000e+03   7.822968e-07 
  1.008000e+03   8.416619e-07 
  1.012000e+03   8.859013e-07 
  1.016000e+03   8.845843e-07 
  1.020000e+03   8.289258e-07 
  1.024000e+03   7.608530e-07 
  1.028000e+03   7.720977e-07 
  1.032000e+03   8.347087e-07 
  1.036000e+03   9.423769e-07 
  1.040000e+03   1.065038e-06 
  1.044000e+03   1.025350e-06 
  1.048000e+03   8.378057e-07 
  1.052000e+03   8.319500e-07 
  1.056000e+03   8.734500e-07 
  1.060000e+03   1.061282e-06 
  1.064000e+03   1.712026e-06 
  1.068000e+03   2.976163e-06 
  1.072000e+03   3.997468e-06 
  1.076000e+03   3.931037e-06 
  1.080000e+03   3.627381e-06 
  1.084000e+03   3.734417e-06 
  1.088000e+03   5.056251e-06 
  1.092000e+03   7.607709e-06 
  1.096000e+03   1.028408e-05 
  1.100000e+03   1.133686e-05 
  1.104000e+03   1.025431e-05 
  1.108000e+03   8.650942e-06 
  1.112000e+03   6.465637e-06 
  1.116000e+03   4.277893e-06 
  1.120000e+03   2.954719e-06 
  1.124000e+03   2.137009e-06 
  1.128000e+03   2.118710e-06 
  1.132000e+03   2.790071e-06 
  1.136000e+03   3.230969e-06 
  1.140000e+03   3.485917e-06 
  1.144000e+03   4.372903e-06 
  1.148000e+03   5.662234e-06 
  1.152000e+03   6.298111e-06 
  1.156000e+03   5.749029e-06 
  1.160000e+03   4.690318e-06 
  1.164000e+03   4.956596e-06 
  1.168000e+03   6.146430e-06 
  1.172000e+03   6.730613e-06 
  1.176000e+03   6.785245e-06 
  1.180000e+03   6.602726e-06 
  1.184000e+03   6.452529e-06 
  1.188000e+03   6.334872e-06 
  1.192000e+03   5.680496e-06 
  1.196000e+03   5.328773e-06 
  1.200000e+03   5.651856e-06 
  1.204000e+03   5.686277e-06 
  1.208000e+03   5.116030e-06 
  1.212000e+03   4.321864e-06 
  1.216000e+03   4.524302e-06 
  1.220000e+03   5.718598e-06 
  1.224000e+03   7.080459e-06 
  1.228000e+03   7.641581e-06 
  1.232000e+03   7.141614e-06 
  1.236000e+03   6.175306e-06 
  1.240000e+03   6.594663e-06 
  1.244000e+03   7.267810e-06 
  1.248000e+03   7.339535e-06 
  1.252000e+03   8.189550e-06 
  1.256000e+03   1.031605e-05 
  1.260000e+03   1.277377e-05 
  1.264000e+03   1.510442e-05 
  1.268000e+03   1.923228e-05 
  1.272000e+03   2.372914e-05 
  1.276000e+03   2.525159e-05 
  1.280000e+03   2.451451e-05 
  1.284000e+03   2.436999e-05 
  1.288000e+03   2.569983e-05 
  1.292000e+03   2.727540e-05 
  1.296000e+03   2.529389e-05 
  1.300000e+03   2.115854e-05 
  1.304000e+03   1.889039e-05 
  1.308000e+03   1.880119e-05 
  1.312000e+03   1.874069e-05 
  1.316000e+03   1.922274e-05 
  1.320000e+03   1.619842e-05 
  1.324000e+03   1.276458e-05 
  1.328000e+03   1.219498e-05 
  1.332000e+03   1.238538e-05 
  1.336000e+03   1.477935e-05 
  1.340000e+03   2.109016e-05 
  1.344000e+03   2.770560e-05 
  1.348000e+03   3.117799e-05 
  1.352000e+03   3.174087e-05 
  1.356000e+03   2.889052e-05 
  1.360000e+03   2.294201e-05 
  1.364000e+03   1.766120e-05 
  1.368000e+03   1.694998e-05 
  1.372000e+03   1.806528e-05 
  1.376000e+03   1.655879e-05 
  1.380000e+03   1.349143e-05 
  1.384000e+03   9.228018e-06 
  1.388000e+03   4.786738e-06 
  1.392000e+03   3.143267e-06 
  1.396000e+03   2.831476e-06 
  1.400000e+03   3.547063e-06 
  1.404000e+03   4.705814e-06 
  1.408000e+03   5.445019e-06 
  1.412000e+03   5.241318e-06 
  1.416000e+03   5.049783e-06 
  1.420000e+03   4.376195e-06 
  1.424000e+03   3.525869e-06 
  1.428000e+03   3.212958e-06 
  1.432000e+03   2.543379e-06 
  1.436000e+03   1.827350e-06 
  1.440000e+03   1.691711e-06 
  1.444000e+03   2.015527e-06 
  1.448000e+03   2.291876e-06 
  1.452000e+03   2.350037e-06 
  1.456000e+03   2.549403e-06 
  1.460000e+03   3.190389e-06 
  1.464000e+03   4.064577e-06 
  1.468000e+03   5.619524e-06 
  1.472000e+03   8.647359e-06 
  1.476000e+03   1.091972e-05 
  1.480000e+03   1.100718e-05 
  1.484000e+03   9.833676e-06 
  1.488000e+03   8.706902e-06 
  1.492000e+03   7.875758e-06 
  1.496000e+03   7.233689e-06 
  1.500000e+03   7.427419e-06 
  1.504000e+03   7.054983e-06 
  1.508000e+03   6.567941e-06 
  1.512000e+03   7.333726e-06 
  1.516000e+03   7.875960e-06 
  1.520000e+03   7.209089e-06 
  1.524000e+03   5.719285e-06 
  1.528000e+03   3.935776e-06 
  1.532000e+03   2.499290e-06 
  1.536000e+03   2.366866e-06 
  1.540000e+03   2.940008e-06 
  1.544000e+03   3.100424e-06 
  1.548000e+03   2.576089e-06 
  1.552000e+03   1.999871e-06 
  1.556000e+03   1.653298e-06 
  1.560000e+03   1.860215e-06 
  1.564000e+03   1.977399e-06 
  1.568000e+03   1.860574e-06 
  1.572000e+03   1.513349e-06 
  1.576000e+03   1.481587e-06 
  1.580000e+03   1.694583e-06 
  1.584000e+03   2.048961e-06 
  1.588000e+03   2.434518e-06 
  1.592000e+03   2.148467e-06 
  1.596000e+03   1.939242e-06 
  1.600000e+03   2.475542e-06 
