Input File: ctnnoise3\00PD.78D
Measure Group: FFT
Measurement: FFT 1
Num of extracted Points: 801
Start Freq: -0 Hz
Span: 1.6 kHz
FFT Lines:  800 
Window: BMH
Averaging Mode: RMS
Averaging Type: Exp. / Cont.
Number of Avg:   10
Overload reject: Off

    X[Hz]      Vrms/Hz^(1/... 
  0.000000e+00   4.695084e-04 
  2.000000e+00   3.195716e-04 
  4.000000e+00   9.258484e-05 
  6.000000e+00   7.810353e-06 
  8.000000e+00   4.197577e-07 
  1.000000e+01   4.133808e-07 
  1.200000e+01   4.387654e-07 
  1.400000e+01   4.808870e-07 
  1.600000e+01   4.453671e-07 
  1.800000e+01   4.237229e-07 
  2.000000e+01   4.191147e-07 
  2.200000e+01   4.161884e-07 
  2.400000e+01   4.466370e-07 
  2.600000e+01   4.528991e-07 
  2.800000e+01   4.569889e-07 
  3.000000e+01   4.533644e-07 
  3.200000e+01   4.542579e-07 
  3.400000e+01   4.263610e-07 
  3.600000e+01   3.804196e-07 
  3.800000e+01   3.755426e-07 
  4.000000e+01   4.708943e-07 
  4.200000e+01   5.307643e-07 
  4.400000e+01   5.008200e-07 
  4.600000e+01   5.132272e-07 
  4.800000e+01   5.526423e-07 
  5.000000e+01   4.913342e-07 
  5.200000e+01   4.701299e-07 
  5.400000e+01   4.885650e-07 
  5.600000e+01   5.087289e-07 
  5.800000e+01   4.906866e-07 
  6.000000e+01   4.405441e-07 
  6.200000e+01   4.149913e-07 
  6.400000e+01   3.843202e-07 
  6.600000e+01   4.093977e-07 
  6.800000e+01   4.783370e-07 
  7.000000e+01   4.979470e-07 
  7.200000e+01   4.483482e-07 
  7.400000e+01   4.133918e-07 
  7.600000e+01   4.436027e-07 
  7.800000e+01   4.805281e-07 
  8.000000e+01   4.084912e-07 
  8.200000e+01   3.493086e-07 
  8.400000e+01   3.848669e-07 
  8.600000e+01   4.212382e-07 
  8.800000e+01   4.019228e-07 
  9.000000e+01   3.805476e-07 
  9.200000e+01   4.263181e-07 
  9.400000e+01   4.609350e-07 
  9.600000e+01   4.249235e-07 
  9.800000e+01   4.078499e-07 
  1.000000e+02   4.090266e-07 
  1.020000e+02   4.413068e-07 
  1.040000e+02   4.247322e-07 
  1.060000e+02   4.132991e-07 
  1.080000e+02   4.063552e-07 
  1.100000e+02   3.803966e-07 
  1.120000e+02   4.353332e-07 
  1.140000e+02   4.780152e-07 
  1.160000e+02   8.147707e-07 
  1.180000e+02   1.979407e-06 
  1.200000e+02   2.719063e-06 
  1.220000e+02   1.820437e-06 
  1.240000e+02   6.054169e-07 
  1.260000e+02   4.551799e-07 
  1.280000e+02   4.664827e-07 
  1.300000e+02   3.681864e-07 
  1.320000e+02   4.453414e-07 
  1.340000e+02   5.910701e-07 
  1.360000e+02   5.920904e-07 
  1.380000e+02   5.258098e-07 
  1.400000e+02   4.655934e-07 
  1.420000e+02   4.512225e-07 
  1.440000e+02   5.307107e-07 
  1.460000e+02   5.745253e-07 
  1.480000e+02   5.158496e-07 
  1.500000e+02   4.746680e-07 
  1.520000e+02   4.575737e-07 
  1.540000e+02   4.051575e-07 
  1.560000e+02   4.257169e-07 
  1.580000e+02   4.704970e-07 
  1.600000e+02   4.253898e-07 
  1.620000e+02   3.755723e-07 
  1.640000e+02   3.896634e-07 
  1.660000e+02   4.302501e-07 
  1.680000e+02   4.480308e-07 
  1.700000e+02   4.475741e-07 
  1.720000e+02   4.269915e-07 
  1.740000e+02   3.949008e-07 
  1.760000e+02   3.840094e-07 
  1.780000e+02   3.167248e-07 
  1.800000e+02   3.245855e-07 
  1.820000e+02   3.836066e-07 
  1.840000e+02   3.826399e-07 
  1.860000e+02   3.519272e-07 
  1.880000e+02   3.836731e-07 
  1.900000e+02   4.279827e-07 
  1.920000e+02   4.615788e-07 
  1.940000e+02   4.555437e-07 
  1.960000e+02   4.074276e-07 
  1.980000e+02   4.217614e-07 
  2.000000e+02   3.951552e-07 
  2.020000e+02   3.421315e-07 
  2.040000e+02   3.664439e-07 
  2.060000e+02   4.186266e-07 
  2.080000e+02   4.390901e-07 
  2.100000e+02   4.502561e-07 
  2.120000e+02   4.431580e-07 
  2.140000e+02   4.201131e-07 
  2.160000e+02   4.116609e-07 
  2.180000e+02   4.151219e-07 
  2.200000e+02   4.122650e-07 
  2.220000e+02   4.184026e-07 
  2.240000e+02   4.243785e-07 
  2.260000e+02   4.326800e-07 
  2.280000e+02   4.822888e-07 
  2.300000e+02   4.979444e-07 
  2.320000e+02   4.826866e-07 
  2.340000e+02   4.341898e-07 
  2.360000e+02   4.658133e-07 
  2.380000e+02   8.014716e-07 
  2.400000e+02   1.060921e-06 
  2.420000e+02   7.679525e-07 
  2.440000e+02   4.798677e-07 
  2.460000e+02   4.753311e-07 
  2.480000e+02   4.001546e-07 
  2.500000e+02   3.943405e-07 
  2.520000e+02   3.986814e-07 
  2.540000e+02   4.217083e-07 
  2.560000e+02   4.190669e-07 
  2.580000e+02   4.053196e-07 
  2.600000e+02   3.080063e-07 
  2.620000e+02   3.276533e-07 
  2.640000e+02   4.241995e-07 
  2.660000e+02   5.262171e-07 
  2.680000e+02   5.910769e-07 
  2.700000e+02   5.392196e-07 
  2.720000e+02   4.804905e-07 
  2.740000e+02   4.627718e-07 
  2.760000e+02   5.061372e-07 
  2.780000e+02   4.809019e-07 
  2.800000e+02   3.948235e-07 
  2.820000e+02   3.443317e-07 
  2.840000e+02   3.501161e-07 
  2.860000e+02   4.156149e-07 
  2.880000e+02   4.915436e-07 
  2.900000e+02   4.829927e-07 
  2.920000e+02   3.903695e-07 
  2.940000e+02   3.507093e-07 
  2.960000e+02   3.679531e-07 
  2.980000e+02   3.420708e-07 
  3.000000e+02   3.831360e-07 
  3.020000e+02   4.232411e-07 
  3.040000e+02   3.873230e-07 
  3.060000e+02   3.746712e-07 
  3.080000e+02   4.022907e-07 
  3.100000e+02   4.109547e-07 
  3.120000e+02   4.019927e-07 
  3.140000e+02   4.161845e-07 
  3.160000e+02   3.939962e-07 
  3.180000e+02   3.959327e-07 
  3.200000e+02   4.072438e-07 
  3.220000e+02   3.887616e-07 
  3.240000e+02   4.018399e-07 
  3.260000e+02   4.312999e-07 
  3.280000e+02   4.355744e-07 
  3.300000e+02   4.161535e-07 
  3.320000e+02   4.326309e-07 
  3.340000e+02   4.416689e-07 
  3.360000e+02   4.542977e-07 
  3.380000e+02   4.711780e-07 
  3.400000e+02   4.526301e-07 
  3.420000e+02   4.559566e-07 
  3.440000e+02   4.281568e-07 
  3.460000e+02   3.648011e-07 
  3.480000e+02   3.728370e-07 
  3.500000e+02   4.297687e-07 
  3.520000e+02   4.577122e-07 
  3.540000e+02   4.617924e-07 
  3.560000e+02   4.229407e-07 
  3.580000e+02   4.756820e-07 
  3.600000e+02   5.001202e-07 
  3.620000e+02   4.073812e-07 
  3.640000e+02   3.621995e-07 
  3.660000e+02   3.577337e-07 
  3.680000e+02   3.476704e-07 
  3.700000e+02   3.864447e-07 
  3.720000e+02   3.832972e-07 
  3.740000e+02   3.500765e-07 
  3.760000e+02   3.948412e-07 
  3.780000e+02   4.644351e-07 
  3.800000e+02   4.918244e-07 
  3.820000e+02   4.369875e-07 
  3.840000e+02   4.491860e-07 
  3.860000e+02   4.524599e-07 
  3.880000e+02   4.394126e-07 
  3.900000e+02   4.654506e-07 
  3.920000e+02   4.831266e-07 
  3.940000e+02   4.402162e-07 
  3.960000e+02   4.221968e-07 
  3.980000e+02   4.141924e-07 
  4.000000e+02   4.367513e-07 
  4.020000e+02   5.125477e-07 
  4.040000e+02   4.917723e-07 
  4.060000e+02   5.123954e-07 
  4.080000e+02   5.216988e-07 
  4.100000e+02   4.882798e-07 
  4.120000e+02   4.710527e-07 
  4.140000e+02   4.323801e-07 
  4.160000e+02   4.471884e-07 
  4.180000e+02   4.899975e-07 
  4.200000e+02   5.345830e-07 
  4.220000e+02   5.557519e-07 
  4.240000e+02   5.099775e-07 
  4.260000e+02   4.550209e-07 
  4.280000e+02   4.346987e-07 
  4.300000e+02   3.835020e-07 
  4.320000e+02   3.820317e-07 
  4.340000e+02   4.315775e-07 
  4.360000e+02   4.154019e-07 
  4.380000e+02   4.040179e-07 
  4.400000e+02   4.191232e-07 
  4.420000e+02   4.636774e-07 
  4.440000e+02   4.786608e-07 
  4.460000e+02   4.375529e-07 
  4.480000e+02   3.791521e-07 
  4.500000e+02   3.548580e-07 
  4.520000e+02   3.863333e-07 
  4.540000e+02   4.038105e-07 
  4.560000e+02   3.742991e-07 
  4.580000e+02   3.975922e-07 
  4.600000e+02   4.361776e-07 
  4.620000e+02   4.417687e-07 
  4.640000e+02   4.899434e-07 
  4.660000e+02   4.916545e-07 
  4.680000e+02   4.639752e-07 
  4.700000e+02   4.229306e-07 
  4.720000e+02   4.351710e-07 
  4.740000e+02   4.563185e-07 
  4.760000e+02   4.715315e-07 
  4.780000e+02   4.328198e-07 
  4.800000e+02   4.592111e-07 
  4.820000e+02   4.700031e-07 
  4.840000e+02   4.087784e-07 
  4.860000e+02   3.663292e-07 
  4.880000e+02   4.115154e-07 
  4.900000e+02   4.384282e-07 
  4.920000e+02   4.277369e-07 
  4.940000e+02   4.077069e-07 
  4.960000e+02   3.816641e-07 
  4.980000e+02   4.026911e-07 
  5.000000e+02   5.067882e-07 
  5.020000e+02   6.031905e-07 
  5.040000e+02   5.074408e-07 
  5.060000e+02   3.950499e-07 
  5.080000e+02   4.046721e-07 
  5.100000e+02   4.031899e-07 
  5.120000e+02   4.188703e-07 
  5.140000e+02   4.511320e-07 
  5.160000e+02   4.711522e-07 
  5.180000e+02   4.263250e-07 
  5.200000e+02   3.793680e-07 
  5.220000e+02   4.523841e-07 
  5.240000e+02   5.061266e-07 
  5.260000e+02   5.070466e-07 
  5.280000e+02   4.976952e-07 
  5.300000e+02   4.645991e-07 
  5.320000e+02   5.277176e-07 
  5.340000e+02   5.245244e-07 
  5.360000e+02   4.396262e-07 
  5.380000e+02   4.168254e-07 
  5.400000e+02   4.674964e-07 
  5.420000e+02   5.002208e-07 
  5.440000e+02   4.739667e-07 
  5.460000e+02   4.715050e-07 
  5.480000e+02   4.840755e-07 
  5.500000e+02   4.448486e-07 
  5.520000e+02   4.671279e-07 
  5.540000e+02   4.976743e-07 
  5.560000e+02   4.779523e-07 
  5.580000e+02   4.671330e-07 
  5.600000e+02   4.515912e-07 
  5.620000e+02   4.615281e-07 
  5.640000e+02   4.977567e-07 
  5.660000e+02   5.012633e-07 
  5.680000e+02   4.405965e-07 
  5.700000e+02   3.844167e-07 
  5.720000e+02   3.821786e-07 
  5.740000e+02   4.056389e-07 
  5.760000e+02   4.755571e-07 
  5.780000e+02   5.101635e-07 
  5.800000e+02   4.571158e-07 
  5.820000e+02   3.922731e-07 
  5.840000e+02   4.146225e-07 
  5.860000e+02   4.680647e-07 
  5.880000e+02   4.806212e-07 
  5.900000e+02   4.378315e-07 
  5.920000e+02   4.022731e-07 
  5.940000e+02   4.317527e-07 
  5.960000e+02   5.073497e-07 
  5.980000e+02   4.558583e-07 
  6.000000e+02   3.840258e-07 
  6.020000e+02   4.337359e-07 
  6.040000e+02   4.546499e-07 
  6.060000e+02   3.693086e-07 
  6.080000e+02   3.093958e-07 
  6.100000e+02   3.441427e-07 
  6.120000e+02   3.862615e-07 
  6.140000e+02   4.029675e-07 
  6.160000e+02   4.186349e-07 
  6.180000e+02   4.858460e-07 
  6.200000e+02   4.662924e-07 
  6.220000e+02   4.161012e-07 
  6.240000e+02   4.715063e-07 
  6.260000e+02   5.136584e-07 
  6.280000e+02   5.030173e-07 
  6.300000e+02   5.022562e-07 
  6.320000e+02   4.507632e-07 
  6.340000e+02   3.853909e-07 
  6.360000e+02   3.881566e-07 
  6.380000e+02   4.340475e-07 
  6.400000e+02   4.550678e-07 
  6.420000e+02   4.683533e-07 
  6.440000e+02   4.746347e-07 
  6.460000e+02   4.357013e-07 
  6.480000e+02   4.006930e-07 
  6.500000e+02   4.118149e-07 
  6.520000e+02   4.226794e-07 
  6.540000e+02   4.370847e-07 
  6.560000e+02   4.869305e-07 
  6.580000e+02   4.863572e-07 
  6.600000e+02   4.948066e-07 
  6.620000e+02   4.923534e-07 
  6.640000e+02   4.293660e-07 
  6.660000e+02   3.509808e-07 
  6.680000e+02   3.918267e-07 
  6.700000e+02   4.506322e-07 
  6.720000e+02   4.319345e-07 
  6.740000e+02   4.139318e-07 
  6.760000e+02   4.240722e-07 
  6.780000e+02   4.283930e-07 
  6.800000e+02   4.227177e-07 
  6.820000e+02   3.579035e-07 
  6.840000e+02   3.731979e-07 
  6.860000e+02   4.679552e-07 
  6.880000e+02   4.751417e-07 
  6.900000e+02   4.550573e-07 
  6.920000e+02   4.559156e-07 
  6.940000e+02   4.166759e-07 
  6.960000e+02   3.552104e-07 
  6.980000e+02   3.490217e-07 
  7.000000e+02   4.960151e-07 
  7.020000e+02   5.956499e-07 
  7.040000e+02   5.282618e-07 
  7.060000e+02   4.314773e-07 
  7.080000e+02   4.012325e-07 
  7.100000e+02   4.068216e-07 
  7.120000e+02   3.515075e-07 
  7.140000e+02   3.145710e-07 
  7.160000e+02   3.589562e-07 
  7.180000e+02   4.570642e-07 
  7.200000e+02   5.194174e-07 
  7.220000e+02   4.518920e-07 
  7.240000e+02   3.782327e-07 
  7.260000e+02   4.857815e-07 
  7.280000e+02   5.250778e-07 
  7.300000e+02   4.553951e-07 
  7.320000e+02   4.393676e-07 
  7.340000e+02   4.391898e-07 
  7.360000e+02   4.304125e-07 
  7.380000e+02   4.441608e-07 
  7.400000e+02   4.643287e-07 
  7.420000e+02   4.555458e-07 
  7.440000e+02   3.709317e-07 
  7.460000e+02   3.419427e-07 
  7.480000e+02   3.701194e-07 
  7.500000e+02   4.217138e-07 
  7.520000e+02   4.876428e-07 
  7.540000e+02   4.501429e-07 
  7.560000e+02   4.130210e-07 
  7.580000e+02   4.268343e-07 
  7.600000e+02   4.415577e-07 
  7.620000e+02   4.429382e-07 
  7.640000e+02   4.351061e-07 
  7.660000e+02   4.623974e-07 
  7.680000e+02   4.911348e-07 
  7.700000e+02   4.788876e-07 
  7.720000e+02   4.663895e-07 
  7.740000e+02   4.426836e-07 
  7.760000e+02   3.977104e-07 
  7.780000e+02   3.880619e-07 
  7.800000e+02   3.750240e-07 
  7.820000e+02   3.637013e-07 
  7.840000e+02   3.837655e-07 
  7.860000e+02   4.049237e-07 
  7.880000e+02   4.223349e-07 
  7.900000e+02   4.911016e-07 
  7.920000e+02   5.143662e-07 
  7.940000e+02   4.311807e-07 
  7.960000e+02   3.978369e-07 
  7.980000e+02   4.417027e-07 
  8.000000e+02   4.267498e-07 
  8.020000e+02   4.233069e-07 
  8.040000e+02   4.669835e-07 
  8.060000e+02   4.876505e-07 
  8.080000e+02   4.655490e-07 
  8.100000e+02   4.607063e-07 
  8.120000e+02   4.831635e-07 
  8.140000e+02   4.672045e-07 
  8.160000e+02   4.545579e-07 
  8.180000e+02   4.708150e-07 
  8.200000e+02   4.286717e-07 
  8.220000e+02   4.526208e-07 
  8.240000e+02   4.643596e-07 
  8.260000e+02   4.849653e-07 
  8.280000e+02   5.078068e-07 
  8.300000e+02   5.015610e-07 
  8.320000e+02   4.817703e-07 
  8.340000e+02   4.406824e-07 
  8.360000e+02   3.984535e-07 
  8.380000e+02   4.020104e-07 
  8.400000e+02   4.930861e-07 
  8.420000e+02   5.562451e-07 
  8.440000e+02   5.419719e-07 
  8.460000e+02   5.094358e-07 
  8.480000e+02   4.807733e-07 
  8.500000e+02   5.060704e-07 
  8.520000e+02   4.704490e-07 
  8.540000e+02   3.868465e-07 
  8.560000e+02   4.514323e-07 
  8.580000e+02   5.848252e-07 
  8.600000e+02   5.819282e-07 
  8.620000e+02   4.804122e-07 
  8.640000e+02   4.160552e-07 
  8.660000e+02   4.117450e-07 
  8.680000e+02   4.079130e-07 
  8.700000e+02   3.700567e-07 
  8.720000e+02   3.983166e-07 
  8.740000e+02   4.367356e-07 
  8.760000e+02   4.613173e-07 
  8.780000e+02   4.577318e-07 
  8.800000e+02   3.845393e-07 
  8.820000e+02   3.586959e-07 
  8.840000e+02   4.176676e-07 
  8.860000e+02   4.122408e-07 
  8.880000e+02   3.966696e-07 
  8.900000e+02   4.384016e-07 
  8.920000e+02   4.810777e-07 
  8.940000e+02   4.901931e-07 
  8.960000e+02   4.542007e-07 
  8.980000e+02   4.159619e-07 
  9.000000e+02   4.508088e-07 
  9.020000e+02   5.097512e-07 
  9.040000e+02   5.232260e-07 
  9.060000e+02   5.143451e-07 
  9.080000e+02   5.057659e-07 
  9.100000e+02   4.802660e-07 
  9.120000e+02   4.252038e-07 
  9.140000e+02   4.204071e-07 
  9.160000e+02   4.279214e-07 
  9.180000e+02   4.517502e-07 
  9.200000e+02   4.247410e-07 
  9.220000e+02   3.716065e-07 
  9.240000e+02   3.788147e-07 
  9.260000e+02   4.223061e-07 
  9.280000e+02   4.605759e-07 
  9.300000e+02   4.325694e-07 
  9.320000e+02   4.480159e-07 
  9.340000e+02   4.532556e-07 
  9.360000e+02   4.172563e-07 
  9.380000e+02   4.051701e-07 
  9.400000e+02   4.286873e-07 
  9.420000e+02   4.112963e-07 
  9.440000e+02   4.138933e-07 
  9.460000e+02   4.314712e-07 
  9.480000e+02   4.207451e-07 
  9.500000e+02   3.904408e-07 
  9.520000e+02   3.453566e-07 
  9.540000e+02   4.079949e-07 
  9.560000e+02   4.754233e-07 
  9.580000e+02   4.618024e-07 
  9.600000e+02   4.499702e-07 
  9.620000e+02   4.215418e-07 
  9.640000e+02   3.485882e-07 
  9.660000e+02   3.698709e-07 
  9.680000e+02   4.391436e-07 
  9.700000e+02   4.888631e-07 
  9.720000e+02   4.823364e-07 
  9.740000e+02   4.695565e-07 
  9.760000e+02   4.607985e-07 
  9.780000e+02   4.144664e-07 
  9.800000e+02   3.844743e-07 
  9.820000e+02   4.016983e-07 
  9.840000e+02   4.125837e-07 
  9.860000e+02   4.614946e-07 
  9.880000e+02   5.028305e-07 
  9.900000e+02   4.580837e-07 
  9.920000e+02   3.803937e-07 
  9.940000e+02   3.764060e-07 
  9.960000e+02   4.499789e-07 
  9.980000e+02   5.317968e-07 
  1.000000e+03   4.790348e-07 
  1.002000e+03   3.968093e-07 
  1.004000e+03   4.231527e-07 
  1.006000e+03   4.427883e-07 
  1.008000e+03   4.333908e-07 
  1.010000e+03   4.170480e-07 
  1.012000e+03   4.770972e-07 
  1.014000e+03   5.444085e-07 
  1.016000e+03   5.302692e-07 
  1.018000e+03   4.220537e-07 
  1.020000e+03   3.867593e-07 
  1.022000e+03   4.511122e-07 
  1.024000e+03   4.860104e-07 
  1.026000e+03   5.090611e-07 
  1.028000e+03   4.792662e-07 
  1.030000e+03   3.959987e-07 
  1.032000e+03   3.785692e-07 
  1.034000e+03   3.884277e-07 
  1.036000e+03   3.977895e-07 
  1.038000e+03   4.281782e-07 
  1.040000e+03   4.140862e-07 
  1.042000e+03   4.258557e-07 
  1.044000e+03   4.304744e-07 
  1.046000e+03   3.957625e-07 
  1.048000e+03   4.023021e-07 
  1.050000e+03   4.136542e-07 
  1.052000e+03   4.579030e-07 
  1.054000e+03   4.945194e-07 
  1.056000e+03   5.445227e-07 
  1.058000e+03   4.979626e-07 
  1.060000e+03   3.800015e-07 
  1.062000e+03   3.723743e-07 
  1.064000e+03   4.180115e-07 
  1.066000e+03   4.520240e-07 
  1.068000e+03   4.602849e-07 
  1.070000e+03   4.715369e-07 
  1.072000e+03   4.899576e-07 
  1.074000e+03   4.729946e-07 
  1.076000e+03   4.650898e-07 
  1.078000e+03   4.231683e-07 
  1.080000e+03   4.495503e-07 
  1.082000e+03   5.141374e-07 
  1.084000e+03   4.949818e-07 
  1.086000e+03   4.147985e-07 
  1.088000e+03   3.870479e-07 
  1.090000e+03   4.266927e-07 
  1.092000e+03   5.147411e-07 
  1.094000e+03   5.488621e-07 
  1.096000e+03   4.893440e-07 
  1.098000e+03   4.315676e-07 
  1.100000e+03   4.141604e-07 
  1.102000e+03   4.360815e-07 
  1.104000e+03   4.341105e-07 
  1.106000e+03   4.438143e-07 
  1.108000e+03   4.752960e-07 
  1.110000e+03   4.632286e-07 
  1.112000e+03   4.549213e-07 
  1.114000e+03   4.450510e-07 
  1.116000e+03   4.009371e-07 
  1.118000e+03   4.286562e-07 
  1.120000e+03   4.300357e-07 
  1.122000e+03   4.446889e-07 
  1.124000e+03   4.449091e-07 
  1.126000e+03   4.749868e-07 
  1.128000e+03   5.452059e-07 
  1.130000e+03   5.169665e-07 
  1.132000e+03   4.625822e-07 
  1.134000e+03   4.702497e-07 
  1.136000e+03   4.245765e-07 
  1.138000e+03   3.803190e-07 
  1.140000e+03   4.386175e-07 
  1.142000e+03   5.220057e-07 
  1.144000e+03   4.757886e-07 
  1.146000e+03   3.814299e-07 
  1.148000e+03   3.729239e-07 
  1.150000e+03   3.983812e-07 
  1.152000e+03   3.758071e-07 
  1.154000e+03   3.469687e-07 
  1.156000e+03   4.232848e-07 
  1.158000e+03   5.110608e-07 
  1.160000e+03   4.652979e-07 
  1.162000e+03   4.087044e-07 
  1.164000e+03   4.338844e-07 
  1.166000e+03   4.331548e-07 
  1.168000e+03   4.214992e-07 
  1.170000e+03   4.551096e-07 
  1.172000e+03   4.364955e-07 
  1.174000e+03   3.696876e-07 
  1.176000e+03   4.161715e-07 
  1.178000e+03   4.913588e-07 
  1.180000e+03   5.021269e-07 
  1.182000e+03   4.079617e-07 
  1.184000e+03   3.921087e-07 
  1.186000e+03   5.098559e-07 
  1.188000e+03   5.346207e-07 
  1.190000e+03   4.931254e-07 
  1.192000e+03   4.493842e-07 
  1.194000e+03   3.995752e-07 
  1.196000e+03   4.068757e-07 
  1.198000e+03   4.566557e-07 
  1.200000e+03   4.654756e-07 
  1.202000e+03   4.729935e-07 
  1.204000e+03   4.754857e-07 
  1.206000e+03   4.240232e-07 
  1.208000e+03   4.193676e-07 
  1.210000e+03   4.024843e-07 
  1.212000e+03   4.278872e-07 
  1.214000e+03   4.586313e-07 
  1.216000e+03   4.739072e-07 
  1.218000e+03   5.113000e-07 
  1.220000e+03   4.846266e-07 
  1.222000e+03   4.357489e-07 
  1.224000e+03   4.428579e-07 
  1.226000e+03   4.713245e-07 
  1.228000e+03   4.941945e-07 
  1.230000e+03   4.452661e-07 
  1.232000e+03   4.376878e-07 
  1.234000e+03   4.618897e-07 
  1.236000e+03   4.381775e-07 
  1.238000e+03   4.203749e-07 
  1.240000e+03   4.231483e-07 
  1.242000e+03   4.215592e-07 
  1.244000e+03   3.917093e-07 
  1.246000e+03   3.591207e-07 
  1.248000e+03   3.638926e-07 
  1.250000e+03   4.137481e-07 
  1.252000e+03   4.219733e-07 
  1.254000e+03   3.634075e-07 
  1.256000e+03   3.494122e-07 
  1.258000e+03   3.654414e-07 
  1.260000e+03   3.737466e-07 
  1.262000e+03   3.935701e-07 
  1.264000e+03   4.074043e-07 
  1.266000e+03   4.032119e-07 
  1.268000e+03   4.054841e-07 
  1.270000e+03   4.136418e-07 
  1.272000e+03   4.621888e-07 
  1.274000e+03   4.445365e-07 
  1.276000e+03   4.117132e-07 
  1.278000e+03   4.585551e-07 
  1.280000e+03   5.237501e-07 
  1.282000e+03   5.235935e-07 
  1.284000e+03   4.987946e-07 
  1.286000e+03   5.016385e-07 
  1.288000e+03   4.654933e-07 
  1.290000e+03   4.471685e-07 
  1.292000e+03   4.808808e-07 
  1.294000e+03   4.776852e-07 
  1.296000e+03   4.503226e-07 
  1.298000e+03   4.414013e-07 
  1.300000e+03   4.926566e-07 
  1.302000e+03   4.865871e-07 
  1.304000e+03   4.068022e-07 
  1.306000e+03   4.055439e-07 
  1.308000e+03   4.535488e-07 
  1.310000e+03   4.775615e-07 
  1.312000e+03   4.603186e-07 
  1.314000e+03   4.661234e-07 
  1.316000e+03   4.914493e-07 
  1.318000e+03   4.894142e-07 
  1.320000e+03   4.187548e-07 
  1.322000e+03   3.548256e-07 
  1.324000e+03   3.724651e-07 
  1.326000e+03   4.123615e-07 
  1.328000e+03   4.600974e-07 
  1.330000e+03   4.393739e-07 
  1.332000e+03   4.308260e-07 
  1.334000e+03   4.235970e-07 
  1.336000e+03   3.704779e-07 
  1.338000e+03   4.023613e-07 
  1.340000e+03   4.870120e-07 
  1.342000e+03   4.836497e-07 
  1.344000e+03   4.816529e-07 
  1.346000e+03   5.014407e-07 
  1.348000e+03   5.358767e-07 
  1.350000e+03   5.519647e-07 
  1.352000e+03   5.226278e-07 
  1.354000e+03   5.087381e-07 
  1.356000e+03   4.581522e-07 
  1.358000e+03   3.867855e-07 
  1.360000e+03   3.785599e-07 
  1.362000e+03   3.799086e-07 
  1.364000e+03   3.888232e-07 
  1.366000e+03   3.996878e-07 
  1.368000e+03   4.382510e-07 
  1.370000e+03   4.310295e-07 
  1.372000e+03   4.105278e-07 
  1.374000e+03   3.873688e-07 
  1.376000e+03   3.703881e-07 
  1.378000e+03   3.583892e-07 
  1.380000e+03   3.512412e-07 
  1.382000e+03   3.854489e-07 
  1.384000e+03   4.532480e-07 
  1.386000e+03   4.345715e-07 
  1.388000e+03   3.974429e-07 
  1.390000e+03   3.619488e-07 
  1.392000e+03   3.247298e-07 
  1.394000e+03   3.401684e-07 
  1.396000e+03   4.334081e-07 
  1.398000e+03   5.074876e-07 
  1.400000e+03   4.417335e-07 
  1.402000e+03   4.130117e-07 
  1.404000e+03   4.547012e-07 
  1.406000e+03   4.048177e-07 
  1.408000e+03   3.764954e-07 
  1.410000e+03   3.627257e-07 
  1.412000e+03   3.790512e-07 
  1.414000e+03   4.272992e-07 
  1.416000e+03   4.243149e-07 
  1.418000e+03   4.833327e-07 
  1.420000e+03   5.077110e-07 
  1.422000e+03   4.392865e-07 
  1.424000e+03   3.954108e-07 
  1.426000e+03   3.985956e-07 
  1.428000e+03   4.503435e-07 
  1.430000e+03   5.075690e-07 
  1.432000e+03   5.113617e-07 
  1.434000e+03   4.849873e-07 
  1.436000e+03   4.479714e-07 
  1.438000e+03   4.014097e-07 
  1.440000e+03   3.750102e-07 
  1.442000e+03   4.027461e-07 
  1.444000e+03   4.303475e-07 
  1.446000e+03   3.919930e-07 
  1.448000e+03   4.187623e-07 
  1.450000e+03   4.349851e-07 
  1.452000e+03   3.894549e-07 
  1.454000e+03   4.089788e-07 
  1.456000e+03   4.188049e-07 
  1.458000e+03   4.014199e-07 
  1.460000e+03   4.361783e-07 
  1.462000e+03   4.738842e-07 
  1.464000e+03   5.047178e-07 
  1.466000e+03   5.470548e-07 
  1.468000e+03   5.410943e-07 
  1.470000e+03   4.291775e-07 
  1.472000e+03   3.873955e-07 
  1.474000e+03   5.098203e-07 
  1.476000e+03   5.254478e-07 
  1.478000e+03   4.827843e-07 
  1.480000e+03   4.593268e-07 
  1.482000e+03   4.201775e-07 
  1.484000e+03   4.335987e-07 
  1.486000e+03   4.412382e-07 
  1.488000e+03   4.476181e-07 
  1.490000e+03   4.830698e-07 
  1.492000e+03   5.016416e-07 
  1.494000e+03   4.807001e-07 
  1.496000e+03   4.556859e-07 
  1.498000e+03   4.129494e-07 
  1.500000e+03   4.173666e-07 
  1.502000e+03   4.139291e-07 
  1.504000e+03   4.533840e-07 
  1.506000e+03   5.602848e-07 
  1.508000e+03   5.621617e-07 
  1.510000e+03   5.047942e-07 
  1.512000e+03   4.350990e-07 
  1.514000e+03   3.922473e-07 
  1.516000e+03   4.338293e-07 
  1.518000e+03   4.093420e-07 
  1.520000e+03   3.732357e-07 
  1.522000e+03   3.426607e-07 
  1.524000e+03   3.608008e-07 
  1.526000e+03   4.169837e-07 
  1.528000e+03   4.098220e-07 
  1.530000e+03   4.187741e-07 
  1.532000e+03   4.829452e-07 
  1.534000e+03   5.328514e-07 
  1.536000e+03   5.041640e-07 
  1.538000e+03   4.658720e-07 
  1.540000e+03   4.435240e-07 
  1.542000e+03   4.139934e-07 
  1.544000e+03   4.098315e-07 
  1.546000e+03   4.570203e-07 
  1.548000e+03   4.218095e-07 
  1.550000e+03   3.450733e-07 
  1.552000e+03   3.438925e-07 
  1.554000e+03   3.842014e-07 
  1.556000e+03   4.255166e-07 
  1.558000e+03   5.033083e-07 
  1.560000e+03   5.689841e-07 
  1.562000e+03   5.115277e-07 
  1.564000e+03   4.343870e-07 
  1.566000e+03   3.765362e-07 
  1.568000e+03   4.009594e-07 
  1.570000e+03   4.132947e-07 
  1.572000e+03   4.532403e-07 
  1.574000e+03   4.703193e-07 
  1.576000e+03   4.173515e-07 
  1.578000e+03   4.614454e-07 
  1.580000e+03   5.305939e-07 
  1.582000e+03   5.108633e-07 
  1.584000e+03   4.779830e-07 
  1.586000e+03   4.637269e-07 
  1.588000e+03   4.743650e-07 
  1.590000e+03   4.236858e-07 
  1.592000e+03   4.419265e-07 
  1.594000e+03   4.926389e-07 
  1.596000e+03   4.381064e-07 
  1.598000e+03   4.351589e-07 
  1.600000e+03   4.473312e-07 
