Input File: 00SN.78D
Measure Group: FFT
Measurement: FFT 1
Num of extracted Points: 801
Start Freq: -0 Hz
Span: 1.6 kHz
FFT Lines:  800 
Window: Hanning
Averaging Mode: RMS
Averaging Type: Linear / Fix Len
Number of Avg:  100
Overload reject: On

    X[Hz]      Vrms/Hz^(1/... 
  0.000000e+00   2.112782e-04 
  2.000000e+00   1.056821e-04 
  4.000000e+00   9.288666e-07 
  6.000000e+00   7.730326e-07 
  8.000000e+00   7.419659e-07 
  1.000000e+01   6.349189e-07 
  1.200000e+01   6.481018e-07 
  1.400000e+01   5.977174e-07 
  1.600000e+01   5.155680e-07 
  1.800000e+01   5.307049e-07 
  2.000000e+01   4.975947e-07 
  2.200000e+01   5.133878e-07 
  2.400000e+01   4.880567e-07 
  2.600000e+01   4.292497e-07 
  2.800000e+01   4.086893e-07 
  3.000000e+01   4.109932e-07 
  3.200000e+01   3.838958e-07 
  3.400000e+01   3.767646e-07 
  3.600000e+01   3.563976e-07 
  3.800000e+01   3.366638e-07 
  4.000000e+01   3.430409e-07 
  4.200000e+01   3.038468e-07 
  4.400000e+01   3.083025e-07 
  4.600000e+01   3.023956e-07 
  4.800000e+01   2.756780e-07 
  5.000000e+01   2.752972e-07 
  5.200000e+01   2.644252e-07 
  5.400000e+01   2.431420e-07 
  5.600000e+01   2.425820e-07 
  5.800000e+01   1.475365e-06 
  6.000000e+01   2.976945e-06 
  6.200000e+01   1.530689e-06 
  6.400000e+01   2.065072e-07 
  6.600000e+01   2.040594e-07 
  6.800000e+01   1.862561e-07 
  7.000000e+01   2.022836e-07 
  7.200000e+01   2.108220e-07 
  7.400000e+01   1.854087e-07 
  7.600000e+01   1.735385e-07 
  7.800000e+01   1.915525e-07 
  8.000000e+01   1.826799e-07 
  8.200000e+01   1.727632e-07 
  8.400000e+01   1.743270e-07 
  8.600000e+01   1.606062e-07 
  8.800000e+01   1.601523e-07 
  9.000000e+01   1.474250e-07 
  9.200000e+01   1.429238e-07 
  9.400000e+01   1.475948e-07 
  9.600000e+01   1.384546e-07 
  9.800000e+01   1.354078e-07 
  1.000000e+02   1.393949e-07 
  1.020000e+02   1.439722e-07 
  1.040000e+02   1.338178e-07 
  1.060000e+02   1.384862e-07 
  1.080000e+02   1.286685e-07 
  1.100000e+02   1.287503e-07 
  1.120000e+02   1.213459e-07 
  1.140000e+02   1.295411e-07 
  1.160000e+02   1.251085e-07 
  1.180000e+02   1.533433e-07 
  1.200000e+02   2.355790e-07 
  1.220000e+02   1.536954e-07 
  1.240000e+02   1.214007e-07 
  1.260000e+02   1.145635e-07 
  1.280000e+02   1.051698e-07 
  1.300000e+02   1.100232e-07 
  1.320000e+02   1.123124e-07 
  1.340000e+02   1.070692e-07 
  1.360000e+02   9.749424e-08 
  1.380000e+02   1.040252e-07 
  1.400000e+02   1.015940e-07 
  1.420000e+02   9.659229e-08 
  1.440000e+02   1.023531e-07 
  1.460000e+02   1.013222e-07 
  1.480000e+02   9.995369e-08 
  1.500000e+02   1.004105e-07 
  1.520000e+02   9.061218e-08 
  1.540000e+02   9.173100e-08 
  1.560000e+02   9.373064e-08 
  1.580000e+02   9.405912e-08 
  1.600000e+02   9.354592e-08 
  1.620000e+02   8.745495e-08 
  1.640000e+02   8.547642e-08 
  1.660000e+02   8.962341e-08 
  1.680000e+02   9.149058e-08 
  1.700000e+02   8.689138e-08 
  1.720000e+02   8.530167e-08 
  1.740000e+02   8.542504e-08 
  1.760000e+02   7.517829e-08 
  1.780000e+02   4.775167e-07 
  1.800000e+02   9.843312e-07 
  1.820000e+02   5.233061e-07 
  1.840000e+02   7.546430e-08 
  1.860000e+02   7.865301e-08 
  1.880000e+02   7.725166e-08 
  1.900000e+02   6.988138e-08 
  1.920000e+02   6.604012e-08 
  1.940000e+02   6.995198e-08 
  1.960000e+02   7.211534e-08 
  1.980000e+02   7.557461e-08 
  2.000000e+02   7.229137e-08 
  2.020000e+02   7.294894e-08 
  2.040000e+02   6.947761e-08 
  2.060000e+02   6.978332e-08 
  2.080000e+02   6.992564e-08 
  2.100000e+02   6.819055e-08 
  2.120000e+02   6.223185e-08 
  2.140000e+02   6.340777e-08 
  2.160000e+02   6.361946e-08 
  2.180000e+02   6.367626e-08 
  2.200000e+02   6.777329e-08 
  2.220000e+02   6.837985e-08 
  2.240000e+02   6.608913e-08 
  2.260000e+02   6.255064e-08 
  2.280000e+02   5.959857e-08 
  2.300000e+02   5.812861e-08 
  2.320000e+02   5.683942e-08 
  2.340000e+02   5.952456e-08 
  2.360000e+02   6.012413e-08 
  2.380000e+02   7.969859e-08 
  2.400000e+02   1.181197e-07 
  2.420000e+02   8.576492e-08 
  2.440000e+02   6.377258e-08 
  2.460000e+02   5.890853e-08 
  2.480000e+02   5.654815e-08 
  2.500000e+02   6.290406e-08 
  2.520000e+02   5.579773e-08 
  2.540000e+02   5.537777e-08 
  2.560000e+02   5.516619e-08 
  2.580000e+02   5.358249e-08 
  2.600000e+02   5.649141e-08 
  2.620000e+02   5.667116e-08 
  2.640000e+02   5.293034e-08 
  2.660000e+02   5.424508e-08 
  2.680000e+02   5.135026e-08 
  2.700000e+02   5.085129e-08 
  2.720000e+02   5.173112e-08 
  2.740000e+02   5.316735e-08 
  2.760000e+02   5.066229e-08 
  2.780000e+02   5.434417e-08 
  2.800000e+02   4.988535e-08 
  2.820000e+02   5.152634e-08 
  2.840000e+02   5.960685e-08 
  2.860000e+02   5.251988e-08 
  2.880000e+02   4.409415e-08 
  2.900000e+02   4.828537e-08 
  2.920000e+02   4.845403e-08 
  2.940000e+02   4.848713e-08 
  2.960000e+02   5.005607e-08 
  2.980000e+02   3.716667e-07 
  3.000000e+02   7.893359e-07 
  3.020000e+02   4.276819e-07 
  3.040000e+02   5.119278e-08 
  3.060000e+02   4.757401e-08 
  3.080000e+02   4.447016e-08 
  3.100000e+02   4.751198e-08 
  3.120000e+02   4.972118e-08 
  3.140000e+02   4.331600e-08 
  3.160000e+02   4.170681e-08 
  3.180000e+02   4.477331e-08 
  3.200000e+02   4.265413e-08 
  3.220000e+02   4.369464e-08 
  3.240000e+02   4.804908e-08 
  3.260000e+02   4.630875e-08 
  3.280000e+02   4.046525e-08 
  3.300000e+02   4.161291e-08 
  3.320000e+02   4.091970e-08 
  3.340000e+02   4.319944e-08 
  3.360000e+02   4.626513e-08 
  3.380000e+02   4.475481e-08 
  3.400000e+02   4.027803e-08 
  3.420000e+02   4.282497e-08 
  3.440000e+02   4.380924e-08 
  3.460000e+02   4.025217e-08 
  3.480000e+02   4.035904e-08 
  3.500000e+02   4.421532e-08 
  3.520000e+02   4.360825e-08 
  3.540000e+02   4.250978e-08 
  3.560000e+02   4.172327e-08 
  3.580000e+02   5.014029e-08 
  3.600000e+02   6.947631e-08 
  3.620000e+02   5.007075e-08 
  3.640000e+02   3.996437e-08 
  3.660000e+02   3.745572e-08 
  3.680000e+02   3.719548e-08 
  3.700000e+02   3.897159e-08 
  3.720000e+02   3.677931e-08 
  3.740000e+02   3.829789e-08 
  3.760000e+02   3.787672e-08 
  3.780000e+02   3.555781e-08 
  3.800000e+02   3.439151e-08 
  3.820000e+02   3.543445e-08 
  3.840000e+02   3.673892e-08 
  3.860000e+02   3.761458e-08 
  3.880000e+02   3.531843e-08 
  3.900000e+02   3.443072e-08 
  3.920000e+02   3.456415e-08 
  3.940000e+02   3.692343e-08 
  3.960000e+02   3.343639e-08 
  3.980000e+02   3.470204e-08 
  4.000000e+02   3.237436e-08 
  4.020000e+02   3.687687e-08 
  4.040000e+02   3.598696e-08 
  4.060000e+02   3.391107e-08 
  4.080000e+02   3.395733e-08 
  4.100000e+02   3.518983e-08 
  4.120000e+02   3.415684e-08 
  4.140000e+02   3.343770e-08 
  4.160000e+02   3.459227e-08 
  4.180000e+02   7.466992e-08 
  4.200000e+02   1.486855e-07 
  4.220000e+02   8.791502e-08 
  4.240000e+02   3.392800e-08 
  4.260000e+02   3.549990e-08 
  4.280000e+02   3.334834e-08 
  4.300000e+02   3.484134e-08 
  4.320000e+02   3.385152e-08 
  4.340000e+02   3.495753e-08 
  4.360000e+02   3.298638e-08 
  4.380000e+02   3.171333e-08 
  4.400000e+02   3.293516e-08 
  4.420000e+02   3.412820e-08 
  4.440000e+02   3.162052e-08 
  4.460000e+02   3.272539e-08 
  4.480000e+02   3.325747e-08 
  4.500000e+02   3.029326e-08 
  4.520000e+02   3.098252e-08 
  4.540000e+02   3.059604e-08 
  4.560000e+02   3.134675e-08 
  4.580000e+02   3.151827e-08 
  4.600000e+02   3.123048e-08 
  4.620000e+02   3.342211e-08 
  4.640000e+02   3.183076e-08 
  4.660000e+02   3.160019e-08 
  4.680000e+02   3.096050e-08 
  4.700000e+02   2.905621e-08 
  4.720000e+02   3.035662e-08 
  4.740000e+02   3.016961e-08 
  4.760000e+02   2.849958e-08 
  4.780000e+02   3.014715e-08 
  4.800000e+02   3.600692e-08 
  4.820000e+02   3.183123e-08 
  4.840000e+02   2.974257e-08 
  4.860000e+02   2.969931e-08 
  4.880000e+02   2.773463e-08 
  4.900000e+02   2.894503e-08 
  4.920000e+02   2.761890e-08 
  4.940000e+02   2.996536e-08 
  4.960000e+02   3.000694e-08 
  4.980000e+02   2.973089e-08 
  5.000000e+02   2.794559e-08 
  5.020000e+02   2.813829e-08 
  5.040000e+02   2.989539e-08 
  5.060000e+02   2.840655e-08 
  5.080000e+02   2.892480e-08 
  5.100000e+02   2.712016e-08 
  5.120000e+02   2.659654e-08 
  5.140000e+02   2.856504e-08 
  5.160000e+02   3.041364e-08 
  5.180000e+02   2.917981e-08 
  5.200000e+02   2.681340e-08 
  5.220000e+02   2.370881e-08 
  5.240000e+02   2.510559e-08 
  5.260000e+02   2.558852e-08 
  5.280000e+02   2.570564e-08 
  5.300000e+02   2.419236e-08 
  5.320000e+02   2.407630e-08 
  5.340000e+02   2.565245e-08 
  5.360000e+02   2.644238e-08 
  5.380000e+02   9.158158e-08 
  5.400000e+02   2.093745e-07 
  5.420000e+02   1.240491e-07 
  5.440000e+02   2.839559e-08 
  5.460000e+02   2.744670e-08 
  5.480000e+02   2.692313e-08 
  5.500000e+02   2.355054e-08 
  5.520000e+02   2.416688e-08 
  5.540000e+02   2.436250e-08 
  5.560000e+02   2.340112e-08 
  5.580000e+02   2.528601e-08 
  5.600000e+02   2.778303e-08 
  5.620000e+02   2.639812e-08 
  5.640000e+02   2.425492e-08 
  5.660000e+02   2.544297e-08 
  5.680000e+02   4.338197e-08 
  5.700000e+02   3.403400e-08 
  5.720000e+02   2.275776e-08 
  5.740000e+02   2.400341e-08 
  5.760000e+02   2.363442e-08 
  5.780000e+02   2.361637e-08 
  5.800000e+02   2.530128e-08 
  5.820000e+02   2.687375e-08 
  5.840000e+02   2.459951e-08 
  5.860000e+02   2.409894e-08 
  5.880000e+02   2.346428e-08 
  5.900000e+02   2.584978e-08 
  5.920000e+02   2.702674e-08 
  5.940000e+02   2.307064e-08 
  5.960000e+02   2.631657e-08 
  5.980000e+02   2.921024e-08 
  6.000000e+02   4.222251e-08 
  6.020000e+02   3.261389e-08 
  6.040000e+02   2.730624e-08 
  6.060000e+02   2.575630e-08 
  6.080000e+02   2.545947e-08 
  6.100000e+02   2.376092e-08 
  6.120000e+02   2.399718e-08 
  6.140000e+02   2.360205e-08 
  6.160000e+02   2.291203e-08 
  6.180000e+02   2.144569e-08 
  6.200000e+02   2.225962e-08 
  6.220000e+02   2.175565e-08 
  6.240000e+02   2.310914e-08 
  6.260000e+02   2.267019e-08 
  6.280000e+02   2.268516e-08 
  6.300000e+02   2.409852e-08 
  6.320000e+02   2.363933e-08 
  6.340000e+02   2.336558e-08 
  6.360000e+02   2.229001e-08 
  6.380000e+02   2.170341e-08 
  6.400000e+02   2.226260e-08 
  6.420000e+02   2.352463e-08 
  6.440000e+02   2.143243e-08 
  6.460000e+02   2.151006e-08 
  6.480000e+02   2.152814e-08 
  6.500000e+02   2.366004e-08 
  6.520000e+02   2.549278e-08 
  6.540000e+02   2.348085e-08 
  6.560000e+02   2.247814e-08 
  6.580000e+02   9.992242e-08 
  6.600000e+02   2.347716e-07 
  6.620000e+02   1.415719e-07 
  6.640000e+02   2.384940e-08 
  6.660000e+02   2.166013e-08 
  6.680000e+02   2.194766e-08 
  6.700000e+02   2.177435e-08 
  6.720000e+02   2.155650e-08 
  6.740000e+02   2.245269e-08 
  6.760000e+02   2.188155e-08 
  6.780000e+02   2.159108e-08 
  6.800000e+02   2.071612e-08 
  6.820000e+02   2.170160e-08 
  6.840000e+02   2.215900e-08 
  6.860000e+02   2.033676e-08 
  6.880000e+02   2.132842e-08 
  6.900000e+02   2.283209e-08 
  6.920000e+02   2.186044e-08 
  6.940000e+02   2.086131e-08 
  6.960000e+02   2.158721e-08 
  6.980000e+02   2.130650e-08 
  7.000000e+02   1.887022e-08 
  7.020000e+02   1.917549e-08 
  7.040000e+02   2.229195e-08 
  7.060000e+02   2.257578e-08 
  7.080000e+02   2.137719e-08 
  7.100000e+02   2.060231e-08 
  7.120000e+02   1.962465e-08 
  7.140000e+02   2.031534e-08 
  7.160000e+02   2.054031e-08 
  7.180000e+02   2.286767e-08 
  7.200000e+02   3.155617e-08 
  7.220000e+02   2.635600e-08 
  7.240000e+02   1.878973e-08 
  7.260000e+02   1.894020e-08 
  7.280000e+02   2.001880e-08 
  7.300000e+02   1.917104e-08 
  7.320000e+02   2.054114e-08 
  7.340000e+02   2.064501e-08 
  7.360000e+02   1.921304e-08 
  7.380000e+02   2.080537e-08 
  7.400000e+02   2.023092e-08 
  7.420000e+02   1.933126e-08 
  7.440000e+02   1.874757e-08 
  7.460000e+02   2.035979e-08 
  7.480000e+02   2.086508e-08 
  7.500000e+02   2.013584e-08 
  7.520000e+02   2.111655e-08 
  7.540000e+02   2.116925e-08 
  7.560000e+02   2.006929e-08 
  7.580000e+02   2.270563e-08 
  7.600000e+02   2.211827e-08 
  7.620000e+02   2.081770e-08 
  7.640000e+02   1.897835e-08 
  7.660000e+02   1.907787e-08 
  7.680000e+02   2.015197e-08 
  7.700000e+02   2.368854e-08 
  7.720000e+02   2.247946e-08 
  7.740000e+02   1.957923e-08 
  7.760000e+02   1.892397e-08 
  7.780000e+02   7.026478e-08 
  7.800000e+02   1.630386e-07 
  7.820000e+02   1.000664e-07 
  7.840000e+02   2.037253e-08 
  7.860000e+02   2.034983e-08 
  7.880000e+02   2.598922e-08 
  7.900000e+02   2.287153e-08 
  7.920000e+02   1.889880e-08 
  7.940000e+02   2.079327e-08 
  7.960000e+02   2.429116e-08 
  7.980000e+02   1.939041e-08 
  8.000000e+02   1.753144e-08 
  8.020000e+02   1.794173e-08 
  8.040000e+02   1.919319e-08 
  8.060000e+02   1.911022e-08 
  8.080000e+02   1.700671e-08 
  8.100000e+02   1.765158e-08 
  8.120000e+02   1.777814e-08 
  8.140000e+02   1.675710e-08 
  8.160000e+02   1.766264e-08 
  8.180000e+02   1.985505e-08 
  8.200000e+02   1.913004e-08 
  8.220000e+02   1.947383e-08 
  8.240000e+02   1.962121e-08 
  8.260000e+02   1.943857e-08 
  8.280000e+02   1.896785e-08 
  8.300000e+02   1.657554e-08 
  8.320000e+02   1.693960e-08 
  8.340000e+02   1.882554e-08 
  8.360000e+02   1.887990e-08 
  8.380000e+02   1.855302e-08 
  8.400000e+02   2.217375e-08 
  8.420000e+02   2.111167e-08 
  8.440000e+02   1.893546e-08 
  8.460000e+02   1.871507e-08 
  8.480000e+02   1.811509e-08 
  8.500000e+02   1.853848e-08 
  8.520000e+02   2.067416e-08 
  8.540000e+02   1.919355e-08 
  8.560000e+02   1.879420e-08 
  8.580000e+02   1.795416e-08 
  8.600000e+02   1.715601e-08 
  8.620000e+02   1.709944e-08 
  8.640000e+02   1.698468e-08 
  8.660000e+02   1.683477e-08 
  8.680000e+02   1.741261e-08 
  8.700000e+02   1.730499e-08 
  8.720000e+02   1.881823e-08 
  8.740000e+02   1.833778e-08 
  8.760000e+02   1.812260e-08 
  8.780000e+02   1.782093e-08 
  8.800000e+02   1.730313e-08 
  8.820000e+02   1.880552e-08 
  8.840000e+02   1.752729e-08 
  8.860000e+02   1.720957e-08 
  8.880000e+02   1.669378e-08 
  8.900000e+02   1.610548e-08 
  8.920000e+02   1.728144e-08 
  8.940000e+02   1.854229e-08 
  8.960000e+02   1.841674e-08 
  8.980000e+02   4.955560e-08 
  9.000000e+02   1.201661e-07 
  9.020000e+02   7.692313e-08 
  9.040000e+02   1.896271e-08 
  9.060000e+02   2.089588e-08 
  9.080000e+02   1.783793e-08 
  9.100000e+02   1.599318e-08 
  9.120000e+02   1.545001e-08 
  9.140000e+02   1.712157e-08 
  9.160000e+02   1.586532e-08 
  9.180000e+02   1.810431e-08 
  9.200000e+02   1.709284e-08 
  9.220000e+02   1.601994e-08 
  9.240000e+02   1.582180e-08 
  9.260000e+02   1.577946e-08 
  9.280000e+02   1.646947e-08 
  9.300000e+02   1.543096e-08 
  9.320000e+02   1.628651e-08 
  9.340000e+02   1.618595e-08 
  9.360000e+02   1.558133e-08 
  9.380000e+02   1.595993e-08 
  9.400000e+02   1.616020e-08 
  9.420000e+02   1.665583e-08 
  9.440000e+02   1.705501e-08 
  9.460000e+02   1.554187e-08 
  9.480000e+02   1.491904e-08 
  9.500000e+02   1.574109e-08 
  9.520000e+02   1.522699e-08 
  9.540000e+02   1.576352e-08 
  9.560000e+02   1.693307e-08 
  9.580000e+02   1.630649e-08 
  9.600000e+02   1.639593e-08 
  9.620000e+02   1.626633e-08 
  9.640000e+02   1.502926e-08 
  9.660000e+02   1.385036e-08 
  9.680000e+02   1.544996e-08 
  9.700000e+02   1.667480e-08 
  9.720000e+02   1.633118e-08 
  9.740000e+02   1.604614e-08 
  9.760000e+02   1.560936e-08 
  9.780000e+02   1.660391e-08 
  9.800000e+02   1.417797e-08 
  9.820000e+02   1.495265e-08 
  9.840000e+02   1.983834e-08 
  9.860000e+02   2.220204e-08 
  9.880000e+02   1.703295e-08 
  9.900000e+02   1.737003e-08 
  9.920000e+02   1.745929e-08 
  9.940000e+02   1.967725e-08 
  9.960000e+02   1.740294e-08 
  9.980000e+02   1.479394e-08 
  1.000000e+03   1.578592e-08 
  1.002000e+03   1.524386e-08 
  1.004000e+03   1.544089e-08 
  1.006000e+03   4.332156e-08 
  1.008000e+03   6.519858e-08 
  1.010000e+03   2.899360e-08 
  1.012000e+03   1.577031e-08 
  1.014000e+03   1.478747e-08 
  1.016000e+03   1.555492e-08 
  1.018000e+03   4.266125e-08 
  1.020000e+03   1.044954e-07 
  1.022000e+03   6.898687e-08 
  1.024000e+03   1.806033e-08 
  1.026000e+03   1.592799e-08 
  1.028000e+03   1.478223e-08 
  1.030000e+03   1.557351e-08 
  1.032000e+03   1.536749e-08 
  1.034000e+03   1.466500e-08 
  1.036000e+03   1.554617e-08 
  1.038000e+03   1.602825e-08 
  1.040000e+03   1.524213e-08 
  1.042000e+03   1.551238e-08 
  1.044000e+03   1.545330e-08 
  1.046000e+03   1.507156e-08 
  1.048000e+03   1.550408e-08 
  1.050000e+03   1.425497e-08 
  1.052000e+03   1.447451e-08 
  1.054000e+03   1.514505e-08 
  1.056000e+03   1.466644e-08 
  1.058000e+03   1.483488e-08 
  1.060000e+03   1.431949e-08 
  1.062000e+03   1.362931e-08 
  1.064000e+03   1.504531e-08 
  1.066000e+03   1.434439e-08 
  1.068000e+03   1.490954e-08 
  1.070000e+03   1.423553e-08 
  1.072000e+03   1.476529e-08 
  1.074000e+03   1.512415e-08 
  1.076000e+03   1.411165e-08 
  1.078000e+03   1.387394e-08 
  1.080000e+03   1.454431e-08 
  1.082000e+03   1.511522e-08 
  1.084000e+03   1.496896e-08 
  1.086000e+03   1.433790e-08 
  1.088000e+03   1.436675e-08 
  1.090000e+03   1.537648e-08 
  1.092000e+03   1.515935e-08 
  1.094000e+03   1.444874e-08 
  1.096000e+03   1.504603e-08 
  1.098000e+03   1.482648e-08 
  1.100000e+03   1.480401e-08 
  1.102000e+03   1.548570e-08 
  1.104000e+03   1.668065e-08 
  1.106000e+03   1.697876e-08 
  1.108000e+03   1.627577e-08 
  1.110000e+03   1.497281e-08 
  1.112000e+03   1.475200e-08 
  1.114000e+03   1.338973e-08 
  1.116000e+03   1.440446e-08 
  1.118000e+03   1.532028e-08 
  1.120000e+03   1.492346e-08 
  1.122000e+03   1.439174e-08 
  1.124000e+03   1.333977e-08 
  1.126000e+03   1.505781e-08 
  1.128000e+03   1.463675e-08 
  1.130000e+03   1.377782e-08 
  1.132000e+03   1.381733e-08 
  1.134000e+03   1.432948e-08 
  1.136000e+03   1.617148e-08 
  1.138000e+03   3.497575e-08 
  1.140000e+03   8.573846e-08 
  1.142000e+03   5.872199e-08 
  1.144000e+03   1.496002e-08 
  1.146000e+03   1.362540e-08 
  1.148000e+03   1.331900e-08 
  1.150000e+03   1.340698e-08 
  1.152000e+03   1.459925e-08 
  1.154000e+03   1.397763e-08 
  1.156000e+03   1.471822e-08 
  1.158000e+03   1.379306e-08 
  1.160000e+03   1.279299e-08 
  1.162000e+03   1.405783e-08 
  1.164000e+03   1.495237e-08 
  1.166000e+03   1.297510e-08 
  1.168000e+03   1.273324e-08 
  1.170000e+03   1.442019e-08 
  1.172000e+03   1.488616e-08 
  1.174000e+03   1.534716e-08 
  1.176000e+03   1.368340e-08 
  1.178000e+03   1.375925e-08 
  1.180000e+03   1.560549e-08 
  1.182000e+03   2.058076e-08 
  1.184000e+03   1.891932e-08 
  1.186000e+03   1.424931e-08 
  1.188000e+03   1.481609e-08 
  1.190000e+03   1.443825e-08 
  1.192000e+03   1.538429e-08 
  1.194000e+03   1.504124e-08 
  1.196000e+03   1.351073e-08 
  1.198000e+03   1.393466e-08 
  1.200000e+03   1.416799e-08 
  1.202000e+03   1.358621e-08 
  1.204000e+03   1.413086e-08 
  1.206000e+03   1.485322e-08 
  1.208000e+03   1.700441e-08 
  1.210000e+03   1.393891e-08 
  1.212000e+03   1.261300e-08 
  1.214000e+03   1.202532e-08 
  1.216000e+03   1.332105e-08 
  1.218000e+03   1.409759e-08 
  1.220000e+03   1.498453e-08 
  1.222000e+03   1.420594e-08 
  1.224000e+03   1.361328e-08 
  1.226000e+03   1.417069e-08 
  1.228000e+03   1.405233e-08 
  1.230000e+03   1.412714e-08 
  1.232000e+03   1.429345e-08 
  1.234000e+03   1.416861e-08 
  1.236000e+03   1.338207e-08 
  1.238000e+03   1.251224e-08 
  1.240000e+03   1.310143e-08 
  1.242000e+03   1.435824e-08 
  1.244000e+03   1.319122e-08 
  1.246000e+03   1.240095e-08 
  1.248000e+03   1.278236e-08 
  1.250000e+03   1.305600e-08 
  1.252000e+03   1.324975e-08 
  1.254000e+03   1.337604e-08 
  1.256000e+03   1.268705e-08 
  1.258000e+03   1.256304e-08 
  1.260000e+03   2.075195e-08 
  1.262000e+03   1.667261e-08 
  1.264000e+03   1.235970e-08 
  1.266000e+03   1.276739e-08 
  1.268000e+03   1.351869e-08 
  1.270000e+03   1.275957e-08 
  1.272000e+03   1.245473e-08 
  1.274000e+03   1.197356e-08 
  1.276000e+03   1.222865e-08 
  1.278000e+03   1.246207e-08 
  1.280000e+03   1.277317e-08 
  1.282000e+03   1.310047e-08 
  1.284000e+03   1.377823e-08 
  1.286000e+03   1.286670e-08 
  1.288000e+03   1.352305e-08 
  1.290000e+03   1.327573e-08 
  1.292000e+03   1.136396e-08 
  1.294000e+03   1.274141e-08 
  1.296000e+03   1.422485e-08 
  1.298000e+03   1.274440e-08 
  1.300000e+03   1.089723e-08 
  1.302000e+03   1.186451e-08 
  1.304000e+03   1.284066e-08 
  1.306000e+03   1.272439e-08 
  1.308000e+03   1.540588e-08 
  1.310000e+03   1.342367e-08 
  1.312000e+03   1.267798e-08 
  1.314000e+03   1.221223e-08 
  1.316000e+03   1.204897e-08 
  1.318000e+03   1.323936e-08 
  1.320000e+03   1.474527e-08 
  1.322000e+03   1.395064e-08 
  1.324000e+03   1.371702e-08 
  1.326000e+03   1.248038e-08 
  1.328000e+03   1.260875e-08 
  1.330000e+03   1.311197e-08 
  1.332000e+03   1.309341e-08 
  1.334000e+03   1.202135e-08 
  1.336000e+03   1.248730e-08 
  1.338000e+03   1.305067e-08 
  1.340000e+03   1.316297e-08 
  1.342000e+03   1.329546e-08 
  1.344000e+03   1.217091e-08 
  1.346000e+03   1.188734e-08 
  1.348000e+03   1.251385e-08 
  1.350000e+03   1.151041e-08 
  1.352000e+03   1.239995e-08 
  1.354000e+03   1.296519e-08 
  1.356000e+03   1.169448e-08 
  1.358000e+03   1.073596e-08 
  1.360000e+03   1.224939e-08 
  1.362000e+03   1.144248e-08 
  1.364000e+03   1.112724e-08 
  1.366000e+03   1.094000e-08 
  1.368000e+03   1.126009e-08 
  1.370000e+03   1.196013e-08 
  1.372000e+03   1.162774e-08 
  1.374000e+03   1.097410e-08 
  1.376000e+03   1.129427e-08 
  1.378000e+03   2.184996e-08 
  1.380000e+03   4.322898e-08 
  1.382000e+03   3.170935e-08 
  1.384000e+03   1.227372e-08 
  1.386000e+03   1.071652e-08 
  1.388000e+03   1.270554e-08 
  1.390000e+03   1.370314e-08 
  1.392000e+03   1.473975e-08 
  1.394000e+03   1.313716e-08 
  1.396000e+03   1.137647e-08 
  1.398000e+03   1.173713e-08 
  1.400000e+03   1.238843e-08 
  1.402000e+03   1.174587e-08 
  1.404000e+03   1.183659e-08 
  1.406000e+03   1.231379e-08 
  1.408000e+03   1.449445e-08 
  1.410000e+03   1.389091e-08 
  1.412000e+03   1.214883e-08 
  1.414000e+03   1.245858e-08 
  1.416000e+03   1.257780e-08 
  1.418000e+03   1.135296e-08 
  1.420000e+03   1.168675e-08 
  1.422000e+03   1.177916e-08 
  1.424000e+03   1.245345e-08 
  1.426000e+03   1.175304e-08 
  1.428000e+03   1.234184e-08 
  1.430000e+03   1.236631e-08 
  1.432000e+03   1.135964e-08 
  1.434000e+03   1.133079e-08 
  1.436000e+03   1.201606e-08 
  1.438000e+03   1.178416e-08 
  1.440000e+03   1.314961e-08 
  1.442000e+03   1.198942e-08 
  1.444000e+03   1.129233e-08 
  1.446000e+03   1.117074e-08 
  1.448000e+03   1.119716e-08 
  1.450000e+03   1.128369e-08 
  1.452000e+03   1.216365e-08 
  1.454000e+03   1.236195e-08 
  1.456000e+03   1.196612e-08 
  1.458000e+03   1.258453e-08 
  1.460000e+03   1.228850e-08 
  1.462000e+03   1.129981e-08 
  1.464000e+03   1.208197e-08 
  1.466000e+03   1.206748e-08 
  1.468000e+03   1.100450e-08 
  1.470000e+03   1.154129e-08 
  1.472000e+03   1.133610e-08 
  1.474000e+03   1.104624e-08 
  1.476000e+03   1.088712e-08 
  1.478000e+03   1.169937e-08 
  1.480000e+03   1.194214e-08 
  1.482000e+03   1.192951e-08 
  1.484000e+03   1.099367e-08 
  1.486000e+03   1.054185e-08 
  1.488000e+03   1.065466e-08 
  1.490000e+03   1.140420e-08 
  1.492000e+03   1.238663e-08 
  1.494000e+03   1.183717e-08 
  1.496000e+03   1.128982e-08 
  1.498000e+03   1.934472e-08 
  1.500000e+03   4.613881e-08 
  1.502000e+03   3.399357e-08 
  1.504000e+03   1.176178e-08 
  1.506000e+03   1.193509e-08 
  1.508000e+03   1.422276e-08 
  1.510000e+03   1.551602e-08 
  1.512000e+03   1.163971e-08 
  1.514000e+03   1.243822e-08 
  1.516000e+03   1.170035e-08 
  1.518000e+03   1.098239e-08 
  1.520000e+03   1.142443e-08 
  1.522000e+03   1.121792e-08 
  1.524000e+03   1.101700e-08 
  1.526000e+03   1.138558e-08 
  1.528000e+03   1.205134e-08 
  1.530000e+03   1.264507e-08 
  1.532000e+03   1.210486e-08 
  1.534000e+03   1.152741e-08 
  1.536000e+03   1.153006e-08 
  1.538000e+03   1.279132e-08 
  1.540000e+03   1.232451e-08 
  1.542000e+03   1.175086e-08 
  1.544000e+03   1.127785e-08 
  1.546000e+03   1.148646e-08 
  1.548000e+03   1.163647e-08 
  1.550000e+03   1.113201e-08 
  1.552000e+03   1.086532e-08 
  1.554000e+03   1.157385e-08 
  1.556000e+03   1.124999e-08 
  1.558000e+03   1.149096e-08 
  1.560000e+03   1.273293e-08 
  1.562000e+03   1.173665e-08 
  1.564000e+03   1.064824e-08 
  1.566000e+03   1.118294e-08 
  1.568000e+03   1.102936e-08 
  1.570000e+03   1.200871e-08 
  1.572000e+03   1.093965e-08 
  1.574000e+03   1.215115e-08 
  1.576000e+03   1.650262e-08 
  1.578000e+03   1.448184e-08 
  1.580000e+03   1.167739e-08 
  1.582000e+03   1.180020e-08 
  1.584000e+03   1.100692e-08 
  1.586000e+03   1.084148e-08 
  1.588000e+03   1.150460e-08 
  1.590000e+03   1.378841e-08 
  1.592000e+03   1.307814e-08 
  1.594000e+03   1.160349e-08 
  1.596000e+03   1.116440e-08 
  1.598000e+03   1.163660e-08 
  1.600000e+03   1.181217e-08 
