Input File: 00SN.78D
Measure Group: FFT
Measurement: FFT 1
Num of extracted Points: 801
Start Freq: -0 Hz
Span: 1.6 kHz
FFT Lines:  800 
Window: Hanning
Averaging Mode: RMS
Averaging Type: Exp. / Cont.
Number of Avg:   20
Overload reject: On

    X[Hz]      Vrms/Hz^(1/... 
  0.000000e+00   8.476413e-06 
  2.000000e+00   4.654459e-06 
  4.000000e+00   1.810052e-06 
  6.000000e+00   1.653358e-06 
  8.000000e+00   1.505464e-06 
  1.000000e+01   1.229055e-06 
  1.200000e+01   1.120623e-06 
  1.400000e+01   1.126762e-06 
  1.600000e+01   1.291916e-06 
  1.800000e+01   1.279348e-06 
  2.000000e+01   1.100289e-06 
  2.200000e+01   9.332446e-07 
  2.400000e+01   8.402946e-07 
  2.600000e+01   8.533996e-07 
  2.800000e+01   7.990785e-07 
  3.000000e+01   8.404452e-07 
  3.200000e+01   8.083118e-07 
  3.400000e+01   6.698713e-07 
  3.600000e+01   6.503575e-07 
  3.800000e+01   6.070604e-07 
  4.000000e+01   5.710622e-07 
  4.200000e+01   5.992270e-07 
  4.400000e+01   6.004626e-07 
  4.600000e+01   6.060832e-07 
  4.800000e+01   6.030822e-07 
  5.000000e+01   5.686349e-07 
  5.200000e+01   5.331475e-07 
  5.400000e+01   5.351766e-07 
  5.600000e+01   5.451115e-07 
  5.800000e+01   1.582122e-05 
  6.000000e+01   3.166543e-05 
  6.200000e+01   1.587072e-05 
  6.400000e+01   4.962355e-07 
  6.600000e+01   4.636328e-07 
  6.800000e+01   4.272225e-07 
  7.000000e+01   3.903811e-07 
  7.200000e+01   4.481682e-07 
  7.400000e+01   4.086237e-07 
  7.600000e+01   3.549840e-07 
  7.800000e+01   3.247993e-07 
  8.000000e+01   3.524855e-07 
  8.200000e+01   4.099161e-07 
  8.400000e+01   3.439418e-07 
  8.600000e+01   3.138709e-07 
  8.800000e+01   3.421726e-07 
  9.000000e+01   2.858174e-07 
  9.200000e+01   2.944869e-07 
  9.400000e+01   3.149723e-07 
  9.600000e+01   3.155627e-07 
  9.800000e+01   3.139363e-07 
  1.000000e+02   2.874046e-07 
  1.020000e+02   2.829557e-07 
  1.040000e+02   3.308696e-07 
  1.060000e+02   2.823196e-07 
  1.080000e+02   2.551159e-07 
  1.100000e+02   2.714311e-07 
  1.120000e+02   2.483596e-07 
  1.140000e+02   2.359800e-07 
  1.160000e+02   2.414660e-07 
  1.180000e+02   3.363054e-07 
  1.200000e+02   4.717983e-07 
  1.220000e+02   3.049261e-07 
  1.240000e+02   2.366751e-07 
  1.260000e+02   2.158214e-07 
  1.280000e+02   2.040869e-07 
  1.300000e+02   2.314720e-07 
  1.320000e+02   2.275644e-07 
  1.340000e+02   2.604123e-07 
  1.360000e+02   2.319581e-07 
  1.380000e+02   2.197440e-07 
  1.400000e+02   2.229037e-07 
  1.420000e+02   1.970021e-07 
  1.440000e+02   2.380521e-07 
  1.460000e+02   2.180547e-07 
  1.480000e+02   2.089836e-07 
  1.500000e+02   1.903464e-07 
  1.520000e+02   1.770520e-07 
  1.540000e+02   1.991712e-07 
  1.560000e+02   1.989067e-07 
  1.580000e+02   1.935626e-07 
  1.600000e+02   1.805540e-07 
  1.620000e+02   1.977008e-07 
  1.640000e+02   2.075188e-07 
  1.660000e+02   1.694052e-07 
  1.680000e+02   1.578753e-07 
  1.700000e+02   1.667887e-07 
  1.720000e+02   1.733267e-07 
  1.740000e+02   1.678912e-07 
  1.760000e+02   1.617115e-07 
  1.780000e+02   1.342243e-06 
  1.800000e+02   2.689526e-06 
  1.820000e+02   1.355925e-06 
  1.840000e+02   1.452798e-07 
  1.860000e+02   1.495302e-07 
  1.880000e+02   1.559815e-07 
  1.900000e+02   1.447343e-07 
  1.920000e+02   1.192615e-07 
  1.940000e+02   1.354866e-07 
  1.960000e+02   1.623543e-07 
  1.980000e+02   1.743861e-07 
  2.000000e+02   1.554190e-07 
  2.020000e+02   1.493216e-07 
  2.040000e+02   1.388944e-07 
  2.060000e+02   1.397560e-07 
  2.080000e+02   1.441625e-07 
  2.100000e+02   1.509560e-07 
  2.120000e+02   1.433238e-07 
  2.140000e+02   1.376078e-07 
  2.160000e+02   1.441851e-07 
  2.180000e+02   1.313824e-07 
  2.200000e+02   1.233387e-07 
  2.220000e+02   1.189551e-07 
  2.240000e+02   1.269801e-07 
  2.260000e+02   1.239147e-07 
  2.280000e+02   1.213679e-07 
  2.300000e+02   1.325265e-07 
  2.320000e+02   1.401282e-07 
  2.340000e+02   1.218505e-07 
  2.360000e+02   1.292983e-07 
  2.380000e+02   1.580683e-07 
  2.400000e+02   2.022140e-07 
  2.420000e+02   1.453649e-07 
  2.440000e+02   1.182581e-07 
  2.460000e+02   1.255200e-07 
  2.480000e+02   1.288018e-07 
  2.500000e+02   1.003351e-07 
  2.520000e+02   1.123248e-07 
  2.540000e+02   1.888915e-07 
  2.560000e+02   2.721811e-07 
  2.580000e+02   1.602430e-07 
  2.600000e+02   1.049925e-07 
  2.620000e+02   1.035777e-07 
  2.640000e+02   1.022755e-07 
  2.660000e+02   1.082779e-07 
  2.680000e+02   1.083957e-07 
  2.700000e+02   9.815236e-08 
  2.720000e+02   1.092740e-07 
  2.740000e+02   1.065289e-07 
  2.760000e+02   1.038909e-07 
  2.780000e+02   1.058713e-07 
  2.800000e+02   9.379637e-08 
  2.820000e+02   9.851897e-08 
  2.840000e+02   1.020910e-07 
  2.860000e+02   9.996367e-08 
  2.880000e+02   1.073106e-07 
  2.900000e+02   1.020422e-07 
  2.920000e+02   9.103216e-08 
  2.940000e+02   8.963440e-08 
  2.960000e+02   9.301199e-08 
  2.980000e+02   7.901140e-07 
  3.000000e+02   1.589429e-06 
  3.020000e+02   7.967529e-07 
  3.040000e+02   8.338474e-08 
  3.060000e+02   9.346300e-08 
  3.080000e+02   8.566330e-08 
  3.100000e+02   8.593274e-08 
  3.120000e+02   9.299957e-08 
  3.140000e+02   9.978087e-08 
  3.160000e+02   1.055271e-07 
  3.180000e+02   9.539338e-08 
  3.200000e+02   8.962991e-08 
  3.220000e+02   9.487714e-08 
  3.240000e+02   1.056830e-07 
  3.260000e+02   1.053765e-07 
  3.280000e+02   7.946433e-08 
  3.300000e+02   8.058107e-08 
  3.320000e+02   1.053316e-07 
  3.340000e+02   9.769629e-08 
  3.360000e+02   8.046315e-08 
  3.380000e+02   7.850137e-08 
  3.400000e+02   8.086167e-08 
  3.420000e+02   8.914532e-08 
  3.440000e+02   8.482149e-08 
  3.460000e+02   8.379733e-08 
  3.480000e+02   8.724340e-08 
  3.500000e+02   9.273011e-08 
  3.520000e+02   9.310919e-08 
  3.540000e+02   8.600365e-08 
  3.560000e+02   7.851122e-08 
  3.580000e+02   8.227520e-08 
  3.600000e+02   1.004847e-07 
  3.620000e+02   8.743031e-08 
  3.640000e+02   8.534177e-08 
  3.660000e+02   8.864240e-08 
  3.680000e+02   9.183448e-08 
  3.700000e+02   8.493158e-08 
  3.720000e+02   7.235091e-08 
  3.740000e+02   6.547054e-08 
  3.760000e+02   6.850923e-08 
  3.780000e+02   8.267104e-08 
  3.800000e+02   8.171193e-08 
  3.820000e+02   8.178878e-08 
  3.840000e+02   8.309954e-08 
  3.860000e+02   8.128919e-08 
  3.880000e+02   8.692940e-08 
  3.900000e+02   8.205065e-08 
  3.920000e+02   7.470342e-08 
  3.940000e+02   8.940928e-08 
  3.960000e+02   9.165462e-08 
  3.980000e+02   7.718873e-08 
  4.000000e+02   6.138523e-08 
  4.020000e+02   7.113230e-08 
  4.040000e+02   7.470984e-08 
  4.060000e+02   6.570130e-08 
  4.080000e+02   6.626864e-08 
  4.100000e+02   6.908571e-08 
  4.120000e+02   7.218855e-08 
  4.140000e+02   7.477322e-08 
  4.160000e+02   8.095320e-08 
  4.180000e+02   6.446717e-07 
  4.200000e+02   1.297707e-06 
  4.220000e+02   6.655769e-07 
  4.240000e+02   6.493081e-08 
  4.260000e+02   6.522559e-08 
  4.280000e+02   6.079798e-08 
  4.300000e+02   6.151448e-08 
  4.320000e+02   6.055850e-08 
  4.340000e+02   6.060352e-08 
  4.360000e+02   5.796112e-08 
  4.380000e+02   6.348419e-08 
  4.400000e+02   6.584435e-08 
  4.420000e+02   6.532404e-08 
  4.440000e+02   7.229706e-08 
  4.460000e+02   6.413747e-08 
  4.480000e+02   6.410666e-08 
  4.500000e+02   6.791750e-08 
  4.520000e+02   6.080678e-08 
  4.540000e+02   6.219758e-08 
  4.560000e+02   6.397283e-08 
  4.580000e+02   7.204250e-08 
  4.600000e+02   6.651145e-08 
  4.620000e+02   6.016549e-08 
  4.640000e+02   5.718790e-08 
  4.660000e+02   5.259454e-08 
  4.680000e+02   5.083455e-08 
  4.700000e+02   5.833106e-08 
  4.720000e+02   6.279546e-08 
  4.740000e+02   5.257875e-08 
  4.760000e+02   5.165860e-08 
  4.780000e+02   6.586897e-08 
  4.800000e+02   8.237501e-08 
  4.820000e+02   6.131654e-08 
  4.840000e+02   5.252179e-08 
  4.860000e+02   5.463435e-08 
  4.880000e+02   6.111694e-08 
  4.900000e+02   5.144130e-08 
  4.920000e+02   5.471005e-08 
  4.940000e+02   5.900391e-08 
  4.960000e+02   6.227725e-08 
  4.980000e+02   6.108809e-08 
  5.000000e+02   5.731476e-08 
  5.020000e+02   5.604030e-08 
  5.040000e+02   5.785832e-08 
  5.060000e+02   5.729615e-08 
  5.080000e+02   5.709095e-08 
  5.100000e+02   1.293704e-07 
  5.120000e+02   2.336997e-07 
  5.140000e+02   1.260270e-07 
  5.160000e+02   6.070503e-08 
  5.180000e+02   5.067354e-08 
  5.200000e+02   5.483027e-08 
  5.220000e+02   6.121648e-08 
  5.240000e+02   5.182881e-08 
  5.260000e+02   5.467500e-08 
  5.280000e+02   6.285356e-08 
  5.300000e+02   5.757504e-08 
  5.320000e+02   5.012602e-08 
  5.340000e+02   5.341535e-08 
  5.360000e+02   5.371302e-08 
  5.380000e+02   5.425767e-08 
  5.400000e+02   5.931724e-08 
  5.420000e+02   4.097813e-08 
  5.440000e+02   4.815433e-08 
  5.460000e+02   5.655122e-08 
  5.480000e+02   6.787259e-08 
  5.500000e+02   6.088214e-08 
  5.520000e+02   5.632965e-08 
  5.540000e+02   4.935736e-08 
  5.560000e+02   4.342197e-08 
  5.580000e+02   4.953747e-08 
  5.600000e+02   5.348898e-08 
  5.620000e+02   5.124962e-08 
  5.640000e+02   4.579232e-08 
  5.660000e+02   5.429109e-08 
  5.680000e+02   6.142890e-08 
  5.700000e+02   5.747094e-08 
  5.720000e+02   5.389838e-08 
  5.740000e+02   5.426213e-08 
  5.760000e+02   4.251947e-08 
  5.780000e+02   5.478807e-08 
  5.800000e+02   6.674914e-08 
  5.820000e+02   6.002667e-08 
  5.840000e+02   4.553099e-08 
  5.860000e+02   4.424341e-08 
  5.880000e+02   6.795926e-08 
  5.900000e+02   7.366999e-08 
  5.920000e+02   5.540402e-08 
  5.940000e+02   7.142292e-08 
  5.960000e+02   6.946919e-08 
  5.980000e+02   4.974861e-08 
  6.000000e+02   4.752103e-08 
  6.020000e+02   5.151045e-08 
  6.040000e+02   4.870528e-08 
  6.060000e+02   4.756614e-08 
  6.080000e+02   4.869319e-08 
  6.100000e+02   5.142999e-08 
  6.120000e+02   4.915313e-08 
  6.140000e+02   4.321220e-08 
  6.160000e+02   4.488205e-08 
  6.180000e+02   4.835756e-08 
  6.200000e+02   4.463378e-08 
  6.220000e+02   4.346817e-08 
  6.240000e+02   4.631791e-08 
  6.260000e+02   4.374881e-08 
  6.280000e+02   4.695990e-08 
  6.300000e+02   4.385398e-08 
  6.320000e+02   4.231068e-08 
  6.340000e+02   4.550028e-08 
  6.360000e+02   5.128928e-08 
  6.380000e+02   5.039461e-08 
  6.400000e+02   5.649722e-08 
  6.420000e+02   5.706218e-08 
  6.440000e+02   5.899513e-08 
  6.460000e+02   4.966638e-08 
  6.480000e+02   3.965621e-08 
  6.500000e+02   4.033857e-08 
  6.520000e+02   4.116576e-08 
  6.540000e+02   4.291659e-08 
  6.560000e+02   4.765068e-08 
  6.580000e+02   2.528618e-07 
  6.600000e+02   5.126664e-07 
  6.620000e+02   2.593843e-07 
  6.640000e+02   4.363233e-08 
  6.660000e+02   4.117773e-08 
  6.680000e+02   3.987567e-08 
  6.700000e+02   4.216423e-08 
  6.720000e+02   4.608236e-08 
  6.740000e+02   5.046369e-08 
  6.760000e+02   4.570177e-08 
  6.780000e+02   4.475154e-08 
  6.800000e+02   4.041385e-08 
  6.820000e+02   4.186898e-08 
  6.840000e+02   4.410284e-08 
  6.860000e+02   4.251344e-08 
  6.880000e+02   3.620389e-08 
  6.900000e+02   3.751106e-08 
  6.920000e+02   4.536026e-08 
  6.940000e+02   4.187159e-08 
  6.960000e+02   3.887300e-08 
  6.980000e+02   4.129376e-08 
  7.000000e+02   4.717692e-08 
  7.020000e+02   4.849986e-08 
  7.040000e+02   4.276342e-08 
  7.060000e+02   3.819225e-08 
  7.080000e+02   3.789567e-08 
  7.100000e+02   3.866101e-08 
  7.120000e+02   4.386798e-08 
  7.140000e+02   4.183073e-08 
  7.160000e+02   3.604853e-08 
  7.180000e+02   4.029370e-08 
  7.200000e+02   5.309624e-08 
  7.220000e+02   4.195744e-08 
  7.240000e+02   3.966595e-08 
  7.260000e+02   4.079821e-08 
  7.280000e+02   4.183582e-08 
  7.300000e+02   3.714662e-08 
  7.320000e+02   3.620892e-08 
  7.340000e+02   4.074823e-08 
  7.360000e+02   4.238490e-08 
  7.380000e+02   4.493821e-08 
  7.400000e+02   4.275570e-08 
  7.420000e+02   4.463233e-08 
  7.440000e+02   4.379982e-08 
  7.460000e+02   4.253208e-08 
  7.480000e+02   4.060078e-08 
  7.500000e+02   4.753055e-08 
  7.520000e+02   4.862135e-08 
  7.540000e+02   4.270204e-08 
  7.560000e+02   4.157323e-08 
  7.580000e+02   4.109927e-08 
  7.600000e+02   4.710102e-08 
  7.620000e+02   4.438450e-08 
  7.640000e+02   4.412636e-08 
  7.660000e+02   1.003414e-07 
  7.680000e+02   1.709347e-07 
  7.700000e+02   8.698201e-08 
  7.720000e+02   4.059159e-08 
  7.740000e+02   4.464929e-08 
  7.760000e+02   4.180590e-08 
  7.780000e+02   1.200660e-07 
  7.800000e+02   2.316286e-07 
  7.820000e+02   1.287291e-07 
  7.840000e+02   4.736761e-08 
  7.860000e+02   6.463965e-08 
  7.880000e+02   5.344913e-08 
  7.900000e+02   4.524744e-08 
  7.920000e+02   5.635106e-08 
  7.940000e+02   5.835764e-08 
  7.960000e+02   3.775807e-08 
  7.980000e+02   3.401873e-08 
  8.000000e+02   3.428395e-08 
  8.020000e+02   4.016699e-08 
  8.040000e+02   3.941765e-08 
  8.060000e+02   3.279103e-08 
  8.080000e+02   3.605960e-08 
  8.100000e+02   3.945039e-08 
  8.120000e+02   4.194577e-08 
  8.140000e+02   3.910294e-08 
  8.160000e+02   3.753855e-08 
  8.180000e+02   3.411330e-08 
  8.200000e+02   3.611122e-08 
  8.220000e+02   3.272589e-08 
  8.240000e+02   4.292198e-08 
  8.260000e+02   4.295938e-08 
  8.280000e+02   3.414508e-08 
  8.300000e+02   3.684137e-08 
  8.320000e+02   3.321944e-08 
  8.340000e+02   3.098583e-08 
  8.360000e+02   3.207354e-08 
  8.380000e+02   3.581795e-08 
  8.400000e+02   3.876206e-08 
  8.420000e+02   3.825864e-08 
  8.440000e+02   4.252351e-08 
  8.460000e+02   4.070214e-08 
  8.480000e+02   4.105043e-08 
  8.500000e+02   4.040040e-08 
  8.520000e+02   3.672341e-08 
  8.540000e+02   3.389408e-08 
  8.560000e+02   4.178951e-08 
  8.580000e+02   3.710386e-08 
  8.600000e+02   3.609080e-08 
  8.620000e+02   4.114598e-08 
  8.640000e+02   4.007522e-08 
  8.660000e+02   3.635114e-08 
  8.680000e+02   3.442055e-08 
  8.700000e+02   3.144317e-08 
  8.720000e+02   3.482535e-08 
  8.740000e+02   3.694984e-08 
  8.760000e+02   4.127201e-08 
  8.780000e+02   3.731499e-08 
  8.800000e+02   3.348564e-08 
  8.820000e+02   3.763153e-08 
  8.840000e+02   3.715392e-08 
  8.860000e+02   3.181660e-08 
  8.880000e+02   3.275922e-08 
  8.900000e+02   3.898608e-08 
  8.920000e+02   3.743014e-08 
  8.940000e+02   3.444886e-08 
  8.960000e+02   3.459312e-08 
  8.980000e+02   1.141873e-07 
  9.000000e+02   2.255154e-07 
  9.020000e+02   1.176954e-07 
  9.040000e+02   3.372449e-08 
  9.060000e+02   3.514557e-08 
  9.080000e+02   4.089245e-08 
  9.100000e+02   3.787831e-08 
  9.120000e+02   3.432015e-08 
  9.140000e+02   3.000516e-08 
  9.160000e+02   3.616480e-08 
  9.180000e+02   3.918454e-08 
  9.200000e+02   3.723213e-08 
  9.220000e+02   3.574451e-08 
  9.240000e+02   3.362992e-08 
  9.260000e+02   3.161034e-08 
  9.280000e+02   3.104637e-08 
  9.300000e+02   3.167355e-08 
  9.320000e+02   3.166646e-08 
  9.340000e+02   3.467283e-08 
  9.360000e+02   3.377684e-08 
  9.380000e+02   3.277937e-08 
  9.400000e+02   3.264526e-08 
  9.420000e+02   3.025330e-08 
  9.440000e+02   3.127420e-08 
  9.460000e+02   3.380706e-08 
  9.480000e+02   3.286845e-08 
  9.500000e+02   3.364907e-08 
  9.520000e+02   3.377294e-08 
  9.540000e+02   3.131074e-08 
  9.560000e+02   2.992005e-08 
  9.580000e+02   3.662431e-08 
  9.600000e+02   4.204477e-08 
  9.620000e+02   3.725022e-08 
  9.640000e+02   3.303920e-08 
  9.660000e+02   3.236772e-08 
  9.680000e+02   3.158086e-08 
  9.700000e+02   3.209119e-08 
  9.720000e+02   3.240024e-08 
  9.740000e+02   3.370456e-08 
  9.760000e+02   3.116916e-08 
  9.780000e+02   3.055016e-08 
  9.800000e+02   3.409779e-08 
  9.820000e+02   4.855497e-08 
  9.840000e+02   4.181348e-08 
  9.860000e+02   2.769350e-08 
  9.880000e+02   3.346300e-08 
  9.900000e+02   4.400248e-08 
  9.920000e+02   4.572913e-08 
  9.940000e+02   3.376575e-08 
  9.960000e+02   2.940273e-08 
  9.980000e+02   3.570676e-08 
  1.000000e+03   3.318160e-08 
  1.002000e+03   2.949942e-08 
  1.004000e+03   3.077994e-08 
  1.006000e+03   3.849590e-08 
  1.008000e+03   4.304072e-08 
  1.010000e+03   3.187091e-08 
  1.012000e+03   3.042054e-08 
  1.014000e+03   3.774578e-08 
  1.016000e+03   3.580817e-08 
  1.018000e+03   4.569705e-08 
  1.020000e+03   7.957915e-08 
  1.022000e+03   5.921178e-08 
  1.024000e+03   1.046864e-07 
  1.026000e+03   6.139521e-08 
  1.028000e+03   3.020728e-08 
  1.030000e+03   2.779984e-08 
  1.032000e+03   2.848792e-08 
  1.034000e+03   3.124874e-08 
  1.036000e+03   3.350159e-08 
  1.038000e+03   3.269804e-08 
  1.040000e+03   3.401815e-08 
  1.042000e+03   3.598876e-08 
  1.044000e+03   3.463599e-08 
  1.046000e+03   3.260485e-08 
  1.048000e+03   3.687766e-08 
  1.050000e+03   3.382143e-08 
  1.052000e+03   3.226223e-08 
  1.054000e+03   2.908137e-08 
  1.056000e+03   3.168994e-08 
  1.058000e+03   3.022863e-08 
  1.060000e+03   3.107132e-08 
  1.062000e+03   3.047172e-08 
  1.064000e+03   2.752810e-08 
  1.066000e+03   2.668466e-08 
  1.068000e+03   3.042825e-08 
  1.070000e+03   2.780012e-08 
  1.072000e+03   2.828354e-08 
  1.074000e+03   2.768542e-08 
  1.076000e+03   2.596065e-08 
  1.078000e+03   2.873342e-08 
  1.080000e+03   3.895668e-08 
  1.082000e+03   3.069144e-08 
  1.084000e+03   2.844950e-08 
  1.086000e+03   3.131783e-08 
  1.088000e+03   3.006224e-08 
  1.090000e+03   3.085595e-08 
  1.092000e+03   3.363549e-08 
  1.094000e+03   2.771560e-08 
  1.096000e+03   2.833606e-08 
  1.098000e+03   2.739121e-08 
  1.100000e+03   2.794829e-08 
  1.102000e+03   3.225581e-08 
  1.104000e+03   2.932082e-08 
  1.106000e+03   3.097480e-08 
  1.108000e+03   3.141540e-08 
  1.110000e+03   2.770168e-08 
  1.112000e+03   2.835026e-08 
  1.114000e+03   3.007312e-08 
  1.116000e+03   3.117452e-08 
  1.118000e+03   2.905141e-08 
  1.120000e+03   2.478334e-08 
  1.122000e+03   2.645063e-08 
  1.124000e+03   2.892058e-08 
  1.126000e+03   3.308448e-08 
  1.128000e+03   3.086328e-08 
  1.130000e+03   2.604544e-08 
  1.132000e+03   2.565970e-08 
  1.134000e+03   2.680662e-08 
  1.136000e+03   2.980030e-08 
  1.138000e+03   9.033435e-08 
  1.140000e+03   1.759473e-07 
  1.142000e+03   9.391422e-08 
  1.144000e+03   2.871217e-08 
  1.146000e+03   2.870815e-08 
  1.148000e+03   2.973499e-08 
  1.150000e+03   2.776384e-08 
  1.152000e+03   2.824991e-08 
  1.154000e+03   2.629847e-08 
  1.156000e+03   2.440962e-08 
  1.158000e+03   2.615294e-08 
  1.160000e+03   2.808450e-08 
  1.162000e+03   2.734345e-08 
  1.164000e+03   2.874504e-08 
  1.166000e+03   2.786843e-08 
  1.168000e+03   2.735104e-08 
  1.170000e+03   2.869734e-08 
  1.172000e+03   3.007557e-08 
  1.174000e+03   2.721436e-08 
  1.176000e+03   2.969609e-08 
  1.178000e+03   3.555607e-08 
  1.180000e+03   4.072887e-08 
  1.182000e+03   3.327728e-08 
  1.184000e+03   3.002230e-08 
  1.186000e+03   2.765073e-08 
  1.188000e+03   3.086193e-08 
  1.190000e+03   3.240111e-08 
  1.192000e+03   3.120443e-08 
  1.194000e+03   2.730691e-08 
  1.196000e+03   2.733425e-08 
  1.198000e+03   2.965724e-08 
  1.200000e+03   3.336995e-08 
  1.202000e+03   2.746570e-08 
  1.204000e+03   2.692031e-08 
  1.206000e+03   2.552609e-08 
  1.208000e+03   2.524893e-08 
  1.210000e+03   2.579394e-08 
  1.212000e+03   2.783815e-08 
  1.214000e+03   2.427418e-08 
  1.216000e+03   2.712500e-08 
  1.218000e+03   2.769175e-08 
  1.220000e+03   2.704315e-08 
  1.222000e+03   2.679693e-08 
  1.224000e+03   2.535826e-08 
  1.226000e+03   2.248149e-08 
  1.228000e+03   2.459629e-08 
  1.230000e+03   2.408130e-08 
  1.232000e+03   2.342870e-08 
  1.234000e+03   2.524562e-08 
  1.236000e+03   2.586939e-08 
  1.238000e+03   2.502087e-08 
  1.240000e+03   2.816932e-08 
  1.242000e+03   2.779631e-08 
  1.244000e+03   2.777574e-08 
  1.246000e+03   3.012056e-08 
  1.248000e+03   2.565352e-08 
  1.250000e+03   2.650373e-08 
  1.252000e+03   2.695910e-08 
  1.254000e+03   2.404230e-08 
  1.256000e+03   2.887479e-08 
  1.258000e+03   5.567802e-08 
  1.260000e+03   9.905439e-08 
  1.262000e+03   5.746455e-08 
  1.264000e+03   2.755197e-08 
  1.266000e+03   2.424956e-08 
  1.268000e+03   2.383865e-08 
  1.270000e+03   2.752364e-08 
  1.272000e+03   2.820876e-08 
  1.274000e+03   2.788260e-08 
  1.276000e+03   2.343753e-08 
  1.278000e+03   4.652043e-08 
  1.280000e+03   7.469995e-08 
  1.282000e+03   4.145740e-08 
  1.284000e+03   2.531840e-08 
  1.286000e+03   2.733539e-08 
  1.288000e+03   2.572376e-08 
  1.290000e+03   2.765316e-08 
  1.292000e+03   2.510073e-08 
  1.294000e+03   2.832557e-08 
  1.296000e+03   2.760471e-08 
  1.298000e+03   2.380175e-08 
  1.300000e+03   2.542109e-08 
  1.302000e+03   2.623888e-08 
  1.304000e+03   2.401762e-08 
  1.306000e+03   2.638871e-08 
  1.308000e+03   2.419550e-08 
  1.310000e+03   2.798338e-08 
  1.312000e+03   2.821085e-08 
  1.314000e+03   3.046824e-08 
  1.316000e+03   2.815444e-08 
  1.318000e+03   2.294087e-08 
  1.320000e+03   2.464686e-08 
  1.322000e+03   2.361644e-08 
  1.324000e+03   2.239044e-08 
  1.326000e+03   2.394310e-08 
  1.328000e+03   2.694810e-08 
  1.330000e+03   2.781938e-08 
  1.332000e+03   2.773148e-08 
  1.334000e+03   2.787478e-08 
  1.336000e+03   2.677281e-08 
  1.338000e+03   2.624795e-08 
  1.340000e+03   2.391339e-08 
  1.342000e+03   2.255723e-08 
  1.344000e+03   2.366055e-08 
  1.346000e+03   2.290887e-08 
  1.348000e+03   2.023646e-08 
  1.350000e+03   2.367941e-08 
  1.352000e+03   2.202054e-08 
  1.354000e+03   2.166971e-08 
  1.356000e+03   2.390087e-08 
  1.358000e+03   2.880475e-08 
  1.360000e+03   2.777630e-08 
  1.362000e+03   2.422231e-08 
  1.364000e+03   2.357285e-08 
  1.366000e+03   2.420791e-08 
  1.368000e+03   2.246943e-08 
  1.370000e+03   2.149700e-08 
  1.372000e+03   2.148542e-08 
  1.374000e+03   2.713031e-08 
  1.376000e+03   3.094677e-08 
  1.378000e+03   4.611378e-08 
  1.380000e+03   7.291281e-08 
  1.382000e+03   4.189437e-08 
  1.384000e+03   2.738846e-08 
  1.386000e+03   2.881687e-08 
  1.388000e+03   3.016862e-08 
  1.390000e+03   2.944760e-08 
  1.392000e+03   2.811204e-08 
  1.394000e+03   2.355411e-08 
  1.396000e+03   2.145743e-08 
  1.398000e+03   1.979120e-08 
  1.400000e+03   1.992188e-08 
  1.402000e+03   2.297752e-08 
  1.404000e+03   2.295058e-08 
  1.406000e+03   2.550021e-08 
  1.408000e+03   2.457228e-08 
  1.410000e+03   2.349452e-08 
  1.412000e+03   2.122914e-08 
  1.414000e+03   2.508988e-08 
  1.416000e+03   2.698603e-08 
  1.418000e+03   2.356069e-08 
  1.420000e+03   2.309900e-08 
  1.422000e+03   2.624140e-08 
  1.424000e+03   2.627634e-08 
  1.426000e+03   2.601063e-08 
  1.428000e+03   2.504123e-08 
  1.430000e+03   2.626102e-08 
  1.432000e+03   2.554737e-08 
  1.434000e+03   2.195309e-08 
  1.436000e+03   2.172149e-08 
  1.438000e+03   2.481870e-08 
  1.440000e+03   2.719701e-08 
  1.442000e+03   2.366000e-08 
  1.444000e+03   2.428559e-08 
  1.446000e+03   2.274383e-08 
  1.448000e+03   2.359297e-08 
  1.450000e+03   2.411600e-08 
  1.452000e+03   2.340888e-08 
  1.454000e+03   2.515909e-08 
  1.456000e+03   2.335559e-08 
  1.458000e+03   2.265338e-08 
  1.460000e+03   2.414156e-08 
  1.462000e+03   2.408450e-08 
  1.464000e+03   2.169917e-08 
  1.466000e+03   2.488808e-08 
  1.468000e+03   2.342321e-08 
  1.470000e+03   2.162080e-08 
  1.472000e+03   2.441479e-08 
  1.474000e+03   2.373220e-08 
  1.476000e+03   2.266042e-08 
  1.478000e+03   2.337688e-08 
  1.480000e+03   2.119273e-08 
  1.482000e+03   2.486135e-08 
  1.484000e+03   2.309455e-08 
  1.486000e+03   2.195768e-08 
  1.488000e+03   2.058213e-08 
  1.490000e+03   2.490337e-08 
  1.492000e+03   2.348715e-08 
  1.494000e+03   2.153224e-08 
  1.496000e+03   2.668265e-08 
  1.498000e+03   1.016614e-07 
  1.500000e+03   2.052689e-07 
  1.502000e+03   1.063321e-07 
  1.504000e+03   2.327711e-08 
  1.506000e+03   2.335248e-08 
  1.508000e+03   2.354532e-08 
  1.510000e+03   2.307089e-08 
  1.512000e+03   2.260952e-08 
  1.514000e+03   1.970730e-08 
  1.516000e+03   2.291131e-08 
  1.518000e+03   2.329374e-08 
  1.520000e+03   2.338598e-08 
  1.522000e+03   2.158971e-08 
  1.524000e+03   1.944990e-08 
  1.526000e+03   2.115857e-08 
  1.528000e+03   2.490635e-08 
  1.530000e+03   2.322110e-08 
  1.532000e+03   2.131695e-08 
  1.534000e+03   3.073094e-08 
  1.536000e+03   4.876333e-08 
  1.538000e+03   3.250102e-08 
  1.540000e+03   2.612009e-08 
  1.542000e+03   2.092305e-08 
  1.544000e+03   2.339180e-08 
  1.546000e+03   2.123036e-08 
  1.548000e+03   2.050314e-08 
  1.550000e+03   2.123896e-08 
  1.552000e+03   2.398240e-08 
  1.554000e+03   2.184521e-08 
  1.556000e+03   2.148329e-08 
  1.558000e+03   2.328263e-08 
  1.560000e+03   2.805651e-08 
  1.562000e+03   2.485266e-08 
  1.564000e+03   2.088578e-08 
  1.566000e+03   2.135664e-08 
  1.568000e+03   2.128941e-08 
  1.570000e+03   2.494043e-08 
  1.572000e+03   3.125738e-08 
  1.574000e+03   2.826315e-08 
  1.576000e+03   2.159492e-08 
  1.578000e+03   2.165388e-08 
  1.580000e+03   2.157268e-08 
  1.582000e+03   2.303365e-08 
  1.584000e+03   2.320027e-08 
  1.586000e+03   2.346866e-08 
  1.588000e+03   2.346846e-08 
  1.590000e+03   2.091526e-08 
  1.592000e+03   1.971611e-08 
  1.594000e+03   2.122882e-08 
  1.596000e+03   2.472222e-08 
  1.598000e+03   2.484311e-08 
  1.600000e+03   2.342349e-08 
