Input File: 00STD.78D
Measure Group: Swept Sine
Measurement: Freq. Resp.
Num of extracted Points: 200
Start Freq.: 100 kHz
Stop  Freq.: 1 kHz
Sweep Type: Log
Auto Level: Off
Amplitude:  50.0 mV
Source Ramping: Off
Source Offset:   0.0 mV
Settle Time:   7.8125 ms
Settle Cycles:   10
Integration Time:   15.625 ms
Integration Cycles:   20

    X[Hz]          P[deg]     
  1.000000e+03  -8.837016e+01 
  1.023411e+03  -8.843410e+01 
  1.047371e+03  -8.844564e+01 
  1.071891e+03  -8.846084e+01 
  1.096986e+03  -8.850914e+01 
  1.122668e+03  -8.854409e+01 
  1.148951e+03  -8.858809e+01 
  1.175850e+03  -8.861469e+01 
  1.203378e+03  -8.864599e+01 
  1.231551e+03  -8.866611e+01 
  1.260383e+03  -8.869639e+01 
  1.289890e+03  -8.872498e+01 
  1.320088e+03  -8.877221e+01 
  1.350994e+03  -8.880542e+01 
  1.382622e+03  -8.883202e+01 
  1.414991e+03  -8.882877e+01 
  1.448118e+03  -8.887080e+01 
  1.482021e+03  -8.890102e+01 
  1.516717e+03  -8.893834e+01 
  1.552225e+03  -8.895589e+01 
  1.588565e+03  -8.899307e+01 
  1.625756e+03  -8.899263e+01 
  1.663817e+03  -8.902261e+01 
  1.702769e+03  -8.907194e+01 
  1.742633e+03  -8.908047e+01 
  1.783431e+03  -8.908956e+01 
  1.825183e+03  -8.912553e+01 
  1.867914e+03  -8.915316e+01 
  1.911644e+03  -8.916407e+01 
  1.956398e+03  -8.920567e+01 
  2.002200e+03  -8.920566e+01 
  2.049075e+03  -8.923183e+01 
  2.097046e+03  -8.924319e+01 
  2.146141e+03  -8.926633e+01 
  2.196385e+03  -8.928790e+01 
  2.247806e+03  -8.932758e+01 
  2.300430e+03  -8.932349e+01 
  2.354286e+03  -8.932746e+01 
  2.409404e+03  -8.937094e+01 
  2.465811e+03  -8.940969e+01 
  2.523539e+03  -8.942192e+01 
  2.582619e+03  -8.942114e+01 
  2.643082e+03  -8.942708e+01 
  2.704960e+03  -8.948108e+01 
  2.768287e+03  -8.948978e+01 
  2.833096e+03  -8.951309e+01 
  2.899423e+03  -8.953763e+01 
  2.967302e+03  -8.955791e+01 
  3.036771e+03  -8.959750e+01 
  3.107866e+03  -8.958955e+01 
  3.180626e+03  -8.963199e+01 
  3.255089e+03  -8.963171e+01 
  3.331295e+03  -8.965787e+01 
  3.409285e+03  -8.971131e+01 
  3.489101e+03  -8.970152e+01 
  3.570786e+03  -8.971989e+01 
  3.654383e+03  -8.968032e+01 
  3.739937e+03  -8.976879e+01 
  3.827494e+03  -8.977824e+01 
  3.917102e+03  -8.979716e+01 
  4.008806e+03  -8.978438e+01 
  4.102658e+03  -8.983385e+01 
  4.198707e+03  -8.984262e+01 
  4.297005e+03  -8.987985e+01 
  4.397604e+03  -8.987194e+01 
  4.500558e+03  -8.988201e+01 
  4.605922e+03  -8.991883e+01 
  4.713753e+03  -8.992573e+01 
  4.824109e+03  -8.998435e+01 
  4.937048e+03  -8.995832e+01 
  5.052631e+03  -8.998287e+01 
  5.170920e+03  -9.003532e+01 
  5.291979e+03  -9.005574e+01 
  5.415872e+03  -9.003947e+01 
  5.542665e+03  -9.010040e+01 
  5.672426e+03  -9.010260e+01 
  5.805226e+03  -9.011034e+01 
  5.941134e+03  -9.014330e+01 
  6.080224e+03  -9.016873e+01 
  6.222571e+03  -9.015816e+01 
  6.368250e+03  -9.025099e+01 
  6.517340e+03  -9.026363e+01 
  6.669919e+03  -9.020235e+01 
  6.826072e+03  -9.031360e+01 
  6.985880e+03  -9.034930e+01 
  7.149429e+03  -9.032664e+01 
  7.316807e+03  -9.031213e+01 
  7.488104e+03  -9.041974e+01 
  7.663411e+03  -9.042375e+01 
  7.842822e+03  -9.052644e+01 
  8.026434e+03  -9.047267e+01 
  8.214344e+03  -9.045342e+01 
  8.406653e+03  -9.053646e+01 
  8.603465e+03  -9.056921e+01 
  8.804884e+03  -9.057188e+01 
  9.011019e+03  -9.067336e+01 
  9.221979e+03  -9.056252e+01 
  9.437878e+03  -9.062647e+01 
  9.658832e+03  -9.068778e+01 
  9.884959e+03  -9.082905e+01 
  1.011638e+04  -9.073219e+01 
  1.035322e+04  -9.075975e+01 
  1.059560e+04  -9.078206e+01 
  1.084366e+04  -9.087592e+01 
  1.109753e+04  -9.101046e+01 
  1.135733e+04  -9.100381e+01 
  1.162322e+04  -9.090521e+01 
  1.189534e+04  -9.104205e+01 
  1.217383e+04  -9.103925e+01 
  1.245883e+04  -9.102264e+01 
  1.275051e+04  -9.117044e+01 
  1.304902e+04  -9.123455e+01 
  1.335452e+04  -9.127254e+01 
  1.366716e+04  -9.128068e+01 
  1.398713e+04  -9.135181e+01 
  1.431459e+04  -9.137341e+01 
  1.464971e+04  -9.131470e+01 
  1.499268e+04  -9.141754e+01 
  1.534368e+04  -9.155251e+01 
  1.570290e+04  -9.152390e+01 
  1.607053e+04  -9.150928e+01 
  1.644676e+04  -9.174678e+01 
  1.683180e+04  -9.157693e+01 
  1.722586e+04  -9.172122e+01 
  1.762914e+04  -9.180437e+01 
  1.804186e+04  -9.176299e+01 
  1.846425e+04  -9.190089e+01 
  1.889652e+04  -9.199344e+01 
  1.933892e+04  -9.219701e+01 
  1.979167e+04  -9.238490e+01 
  2.025502e+04  -9.219665e+01 
  2.072922e+04  -9.243901e+01 
  2.121452e+04  -9.224645e+01 
  2.171118e+04  -9.215686e+01 
  2.221947e+04  -9.220235e+01 
  2.273966e+04  -9.235348e+01 
  2.327203e+04  -9.256286e+01 
  2.381686e+04  -9.275242e+01 
  2.437444e+04  -9.277564e+01 
  2.494508e+04  -9.285760e+01 
  2.552908e+04  -9.267219e+01 
  2.612675e+04  -9.318743e+01 
  2.673842e+04  -9.296883e+01 
  2.736440e+04  -9.318619e+01 
  2.800504e+04  -9.336723e+01 
  2.866068e+04  -9.303735e+01 
  2.933166e+04  -9.310587e+01 
  3.001836e+04  -9.320260e+01 
  3.072113e+04  -9.345084e+01 
  3.144036e+04  -9.365946e+01 
  3.217642e+04  -9.387135e+01 
  3.292971e+04  -9.357667e+01 
  3.370064e+04  -9.395829e+01 
  3.448962e+04  -9.414773e+01 
  3.529707e+04  -9.385381e+01 
  3.612343e+04  -9.431667e+01 
  3.696913e+04  -9.447864e+01 
  3.783462e+04  -9.418767e+01 
  3.872039e+04  -9.429594e+01 
  3.962689e+04  -9.474316e+01 
  4.055461e+04  -9.509340e+01 
  4.150405e+04  -9.463736e+01 
  4.247571e+04  -9.496571e+01 
  4.347013e+04  -9.515079e+01 
  4.448783e+04  -9.571709e+01 
  4.552935e+04  -9.511838e+01 
  4.659526e+04  -9.568389e+01 
  4.768612e+04  -9.556747e+01 
  4.880252e+04  -9.642413e+01 
  4.994505e+04  -9.648795e+01 
  5.111434e+04  -9.631992e+01 
  5.231099e+04  -9.656427e+01 
  5.353567e+04  -9.717937e+01 
  5.478901e+04  -9.697054e+01 
  5.607170e+04  -9.629070e+01 
  5.738442e+04  -9.692149e+01 
  5.872787e+04  -9.704999e+01 
  6.010277e+04  -9.791445e+01 
  6.150986e+04  -9.738489e+01 
  6.294989e+04  -9.824235e+01 
  6.442364e+04  -9.833427e+01 
  6.593188e+04  -9.760112e+01 
  6.747544e+04  -9.919710e+01 
  6.905513e+04  -9.828872e+01 
  7.067181e+04  -9.942985e+01 
  7.232634e+04  -9.941473e+01 
  7.401960e+04  -9.978344e+01 
  7.575250e+04  -9.972533e+01 
  7.752598e+04  -9.946856e+01 
  7.934097e+04  -9.999172e+01 
  8.119845e+04  -9.984795e+01 
  8.309942e+04  -1.010407e+02 
  8.504489e+04  -1.008445e+02 
  8.703591e+04  -1.016573e+02 
  8.907355e+04  -1.014663e+02 
  9.115888e+04  -1.018883e+02 
  9.329304e+04  -1.013885e+02 
  9.547716e+04  -1.024318e+02 
  9.771241e+04  -1.023804e+02 
  1.000000e+05  -1.028911e+02 
