Input File: 02NSIN.78D
Measure Group: FFT
Measurement: FFT 1
Num of extracted Points: 801
Start Freq: -0 Hz
Span: 1.6 kHz
FFT Lines:  800 
Window: Hanning
Averaging Mode: RMS
Averaging Type: Linear / Fix Len
Number of Avg:  100
Overload reject: On

    X[Hz]      Vrms/Hz^(1/... 
  0.000000e+00   1.556413e-03 
  2.000000e+00   7.782243e-04 
  4.000000e+00   7.006030e-07 
  6.000000e+00   5.084386e-07 
  8.000000e+00   4.561232e-07 
  1.000000e+01   4.180625e-07 
  1.200000e+01   3.695235e-07 
  1.400000e+01   4.114523e-07 
  1.600000e+01   4.696647e-07 
  1.800000e+01   3.987863e-07 
  2.000000e+01   2.824491e-07 
  2.200000e+01   2.492832e-07 
  2.400000e+01   2.081908e-07 
  2.600000e+01   1.857699e-07 
  2.800000e+01   1.978130e-07 
  3.000000e+01   2.018164e-07 
  3.200000e+01   1.748082e-07 
  3.400000e+01   1.893281e-07 
  3.600000e+01   1.839885e-07 
  3.800000e+01   1.623299e-07 
  4.000000e+01   1.509075e-07 
  4.200000e+01   1.539482e-07 
  4.400000e+01   1.417815e-07 
  4.600000e+01   1.545279e-07 
  4.800000e+01   1.775052e-07 
  5.000000e+01   1.675308e-07 
  5.200000e+01   1.769006e-07 
  5.400000e+01   1.432511e-07 
  5.600000e+01   1.697102e-07 
  5.800000e+01   3.483687e-05 
  6.000000e+01   6.916610e-05 
  6.200000e+01   3.433781e-05 
  6.400000e+01   2.082571e-07 
  6.600000e+01   1.960474e-07 
  6.800000e+01   1.948517e-07 
  7.000000e+01   1.745278e-07 
  7.200000e+01   1.726057e-07 
  7.400000e+01   1.707741e-07 
  7.600000e+01   1.682667e-07 
  7.800000e+01   1.377975e-07 
  8.000000e+01   1.527387e-07 
  8.200000e+01   1.634341e-07 
  8.400000e+01   1.897263e-07 
  8.600000e+01   1.959726e-07 
  8.800000e+01   1.536499e-07 
  9.000000e+01   1.610870e-07 
  9.200000e+01   1.646250e-07 
  9.400000e+01   1.525950e-07 
  9.600000e+01   1.598278e-07 
  9.800000e+01   1.640887e-07 
  1.000000e+02   1.664737e-07 
  1.020000e+02   1.724156e-07 
  1.040000e+02   1.770152e-07 
  1.060000e+02   1.722254e-07 
  1.080000e+02   1.438397e-07 
  1.100000e+02   1.337971e-07 
  1.120000e+02   1.317550e-07 
  1.140000e+02   1.484351e-07 
  1.160000e+02   1.650263e-07 
  1.180000e+02   4.233131e-07 
  1.200000e+02   7.805964e-07 
  1.220000e+02   4.283143e-07 
  1.240000e+02   2.010641e-07 
  1.260000e+02   1.840505e-07 
  1.280000e+02   1.655735e-07 
  1.300000e+02   1.535475e-07 
  1.320000e+02   1.626404e-07 
  1.340000e+02   1.718488e-07 
  1.360000e+02   1.830934e-07 
  1.380000e+02   1.744219e-07 
  1.400000e+02   1.388052e-07 
  1.420000e+02   1.579168e-07 
  1.440000e+02   1.603865e-07 
  1.460000e+02   1.535812e-07 
  1.480000e+02   1.502166e-07 
  1.500000e+02   1.453352e-07 
  1.520000e+02   1.431404e-07 
  1.540000e+02   1.376692e-07 
  1.560000e+02   1.400171e-07 
  1.580000e+02   1.318343e-07 
  1.600000e+02   1.402106e-07 
  1.620000e+02   1.427943e-07 
  1.640000e+02   1.596598e-07 
  1.660000e+02   1.484834e-07 
  1.680000e+02   1.479324e-07 
  1.700000e+02   1.533162e-07 
  1.720000e+02   1.463872e-07 
  1.740000e+02   1.697854e-07 
  1.760000e+02   1.620912e-07 
  1.780000e+02   6.306030e-06 
  1.800000e+02   1.235448e-05 
  1.820000e+02   6.061920e-06 
  1.840000e+02   1.701046e-07 
  1.860000e+02   1.747946e-07 
  1.880000e+02   1.518517e-07 
  1.900000e+02   1.488933e-07 
  1.920000e+02   1.359401e-07 
  1.940000e+02   1.246293e-07 
  1.960000e+02   1.485482e-07 
  1.980000e+02   1.492701e-07 
  2.000000e+02   1.453455e-07 
  2.020000e+02   1.430416e-07 
  2.040000e+02   1.506272e-07 
  2.060000e+02   1.346206e-07 
  2.080000e+02   1.537373e-07 
  2.100000e+02   1.441344e-07 
  2.120000e+02   1.556814e-07 
  2.140000e+02   1.558103e-07 
  2.160000e+02   1.427078e-07 
  2.180000e+02   1.213544e-07 
  2.200000e+02   1.382973e-07 
  2.220000e+02   1.409391e-07 
  2.240000e+02   1.564529e-07 
  2.260000e+02   1.566607e-07 
  2.280000e+02   1.578757e-07 
  2.300000e+02   1.409108e-07 
  2.320000e+02   1.404931e-07 
  2.340000e+02   1.438529e-07 
  2.360000e+02   1.567141e-07 
  2.380000e+02   4.323988e-07 
  2.400000e+02   7.835764e-07 
  2.420000e+02   4.069885e-07 
  2.440000e+02   1.268300e-07 
  2.460000e+02   1.394599e-07 
  2.480000e+02   1.612863e-07 
  2.500000e+02   1.497526e-07 
  2.520000e+02   1.496074e-07 
  2.540000e+02   1.578998e-07 
  2.560000e+02   1.391234e-07 
  2.580000e+02   1.480729e-07 
  2.600000e+02   1.595047e-07 
  2.620000e+02   1.387583e-07 
  2.640000e+02   1.411159e-07 
  2.660000e+02   1.467007e-07 
  2.680000e+02   1.333968e-07 
  2.700000e+02   1.307851e-07 
  2.720000e+02   1.646523e-07 
  2.740000e+02   1.535141e-07 
  2.760000e+02   1.512995e-07 
  2.780000e+02   1.539498e-07 
  2.800000e+02   1.441137e-07 
  2.820000e+02   1.409314e-07 
  2.840000e+02   1.405861e-07 
  2.860000e+02   1.218976e-07 
  2.880000e+02   1.297905e-07 
  2.900000e+02   1.384696e-07 
  2.920000e+02   1.331885e-07 
  2.940000e+02   1.257349e-07 
  2.960000e+02   1.356544e-07 
  2.980000e+02   3.327353e-06 
  3.000000e+02   6.418874e-06 
  3.020000e+02   3.095299e-06 
  3.040000e+02   1.401139e-07 
  3.060000e+02   1.439716e-07 
  3.080000e+02   1.330081e-07 
  3.100000e+02   1.395125e-07 
  3.120000e+02   1.446076e-07 
  3.140000e+02   1.420707e-07 
  3.160000e+02   1.371903e-07 
  3.180000e+02   1.492087e-07 
  3.200000e+02   1.303143e-07 
  3.220000e+02   1.229468e-07 
  3.240000e+02   1.442908e-07 
  3.260000e+02   1.363017e-07 
  3.280000e+02   1.405835e-07 
  3.300000e+02   1.316597e-07 
  3.320000e+02   1.173260e-07 
  3.340000e+02   1.261747e-07 
  3.360000e+02   1.351909e-07 
  3.380000e+02   1.472513e-07 
  3.400000e+02   1.404313e-07 
  3.420000e+02   1.481039e-07 
  3.440000e+02   1.422441e-07 
  3.460000e+02   1.394616e-07 
  3.480000e+02   1.551273e-07 
  3.500000e+02   1.429826e-07 
  3.520000e+02   1.277466e-07 
  3.540000e+02   1.230828e-07 
  3.560000e+02   1.485644e-07 
  3.580000e+02   2.442139e-07 
  3.600000e+02   3.736567e-07 
  3.620000e+02   2.294610e-07 
  3.640000e+02   1.408398e-07 
  3.660000e+02   1.227965e-07 
  3.680000e+02   1.245878e-07 
  3.700000e+02   1.433999e-07 
  3.720000e+02   1.477137e-07 
  3.740000e+02   1.504101e-07 
  3.760000e+02   1.338288e-07 
  3.780000e+02   1.246612e-07 
  3.800000e+02   1.409619e-07 
  3.820000e+02   1.460556e-07 
  3.840000e+02   1.513579e-07 
  3.860000e+02   1.505210e-07 
  3.880000e+02   1.527605e-07 
  3.900000e+02   1.375185e-07 
  3.920000e+02   1.237871e-07 
  3.940000e+02   1.370907e-07 
  3.960000e+02   1.360940e-07 
  3.980000e+02   1.404997e-07 
  4.000000e+02   1.381051e-07 
  4.020000e+02   1.497479e-07 
  4.040000e+02   1.512180e-07 
  4.060000e+02   1.603583e-07 
  4.080000e+02   1.474755e-07 
  4.100000e+02   1.362021e-07 
  4.120000e+02   1.497808e-07 
  4.140000e+02   1.671805e-07 
  4.160000e+02   1.501099e-07 
  4.180000e+02   3.309409e-06 
  4.200000e+02   6.288430e-06 
  4.220000e+02   2.981129e-06 
  4.240000e+02   1.496692e-07 
  4.260000e+02   1.220680e-07 
  4.280000e+02   1.287910e-07 
  4.300000e+02   1.410145e-07 
  4.320000e+02   1.468788e-07 
  4.340000e+02   1.573097e-07 
  4.360000e+02   1.558149e-07 
  4.380000e+02   1.518639e-07 
  4.400000e+02   1.291139e-07 
  4.420000e+02   1.295448e-07 
  4.440000e+02   1.453228e-07 
  4.460000e+02   1.358292e-07 
  4.480000e+02   1.297920e-07 
  4.500000e+02   1.205362e-07 
  4.520000e+02   1.369888e-07 
  4.540000e+02   1.332956e-07 
  4.560000e+02   1.377735e-07 
  4.580000e+02   1.413735e-07 
  4.600000e+02   1.239752e-07 
  4.620000e+02   1.492085e-07 
  4.640000e+02   1.531045e-07 
  4.660000e+02   1.323708e-07 
  4.680000e+02   1.221205e-07 
  4.700000e+02   1.378100e-07 
  4.720000e+02   1.367594e-07 
  4.740000e+02   1.328847e-07 
  4.760000e+02   1.509301e-07 
  4.780000e+02   1.635786e-07 
  4.800000e+02   1.923969e-07 
  4.820000e+02   1.402632e-07 
  4.840000e+02   1.302550e-07 
  4.860000e+02   1.254687e-07 
  4.880000e+02   1.181500e-07 
  4.900000e+02   1.223312e-07 
  4.920000e+02   1.342221e-07 
  4.940000e+02   1.332607e-07 
  4.960000e+02   1.296206e-07 
  4.980000e+02   1.384097e-07 
  5.000000e+02   1.345414e-07 
  5.020000e+02   1.313730e-07 
  5.040000e+02   1.508514e-07 
  5.060000e+02   1.443413e-07 
  5.080000e+02   1.344055e-07 
  5.100000e+02   1.328866e-07 
  5.120000e+02   1.501072e-07 
  5.140000e+02   1.426770e-07 
  5.160000e+02   1.532755e-07 
  5.180000e+02   1.455625e-07 
  5.200000e+02   1.484429e-07 
  5.220000e+02   1.414142e-07 
  5.240000e+02   1.348575e-07 
  5.260000e+02   1.380958e-07 
  5.280000e+02   1.408647e-07 
  5.300000e+02   1.590153e-07 
  5.320000e+02   1.381362e-07 
  5.340000e+02   1.279994e-07 
  5.360000e+02   1.375922e-07 
  5.380000e+02   2.701461e-06 
  5.400000e+02   5.066473e-06 
  5.420000e+02   2.370869e-06 
  5.440000e+02   1.458859e-07 
  5.460000e+02   1.377097e-07 
  5.480000e+02   1.347842e-07 
  5.500000e+02   1.375694e-07 
  5.520000e+02   1.307325e-07 
  5.540000e+02   1.454224e-07 
  5.560000e+02   1.382280e-07 
  5.580000e+02   1.225218e-07 
  5.600000e+02   1.337852e-07 
  5.620000e+02   1.355033e-07 
  5.640000e+02   1.420038e-07 
  5.660000e+02   1.308689e-07 
  5.680000e+02   1.355726e-07 
  5.700000e+02   1.215655e-07 
  5.720000e+02   1.471803e-07 
  5.740000e+02   1.501570e-07 
  5.760000e+02   1.531713e-07 
  5.780000e+02   1.337883e-07 
  5.800000e+02   1.424863e-07 
  5.820000e+02   1.348798e-07 
  5.840000e+02   1.252620e-07 
  5.860000e+02   1.385736e-07 
  5.880000e+02   1.559987e-07 
  5.900000e+02   1.475322e-07 
  5.920000e+02   1.327655e-07 
  5.940000e+02   1.296169e-07 
  5.960000e+02   1.364552e-07 
  5.980000e+02   1.531303e-07 
  6.000000e+02   2.039324e-07 
  6.020000e+02   1.689923e-07 
  6.040000e+02   1.284418e-07 
  6.060000e+02   1.291334e-07 
  6.080000e+02   1.254763e-07 
  6.100000e+02   1.242586e-07 
  6.120000e+02   1.398770e-07 
  6.140000e+02   1.479739e-07 
  6.160000e+02   1.459121e-07 
  6.180000e+02   1.328081e-07 
  6.200000e+02   1.359102e-07 
  6.220000e+02   1.501329e-07 
  6.240000e+02   1.311633e-07 
  6.260000e+02   1.485267e-07 
  6.280000e+02   1.414924e-07 
  6.300000e+02   1.215475e-07 
  6.320000e+02   1.338343e-07 
  6.340000e+02   1.402163e-07 
  6.360000e+02   1.508120e-07 
  6.380000e+02   1.505852e-07 
  6.400000e+02   1.443333e-07 
  6.420000e+02   1.278835e-07 
  6.440000e+02   1.372009e-07 
  6.460000e+02   1.642829e-07 
  6.480000e+02   1.542087e-07 
  6.500000e+02   1.659400e-07 
  6.520000e+02   1.498631e-07 
  6.540000e+02   1.440705e-07 
  6.560000e+02   1.974711e-07 
  6.580000e+02   3.070890e-06 
  6.600000e+02   5.634507e-06 
  6.620000e+02   2.599553e-06 
  6.640000e+02   1.371397e-07 
  6.660000e+02   1.403706e-07 
  6.680000e+02   1.464033e-07 
  6.700000e+02   1.376544e-07 
  6.720000e+02   1.418353e-07 
  6.740000e+02   1.481045e-07 
  6.760000e+02   1.421093e-07 
  6.780000e+02   1.339817e-07 
  6.800000e+02   1.394547e-07 
  6.820000e+02   1.497456e-07 
  6.840000e+02   1.590934e-07 
  6.860000e+02   1.725857e-07 
  6.880000e+02   1.293028e-07 
  6.900000e+02   1.384120e-07 
  6.920000e+02   1.327743e-07 
  6.940000e+02   1.263472e-07 
  6.960000e+02   1.435551e-07 
  6.980000e+02   1.541168e-07 
  7.000000e+02   1.388985e-07 
  7.020000e+02   1.461046e-07 
  7.040000e+02   1.516699e-07 
  7.060000e+02   1.298791e-07 
  7.080000e+02   1.320424e-07 
  7.100000e+02   1.352431e-07 
  7.120000e+02   1.298656e-07 
  7.140000e+02   1.173621e-07 
  7.160000e+02   1.338123e-07 
  7.180000e+02   1.682145e-07 
  7.200000e+02   2.161852e-07 
  7.220000e+02   1.572434e-07 
  7.240000e+02   1.434236e-07 
  7.260000e+02   1.539331e-07 
  7.280000e+02   1.491690e-07 
  7.300000e+02   1.491570e-07 
  7.320000e+02   1.430105e-07 
  7.340000e+02   1.258502e-07 
  7.360000e+02   1.307331e-07 
  7.380000e+02   1.466324e-07 
  7.400000e+02   1.615787e-07 
  7.420000e+02   1.560301e-07 
  7.440000e+02   1.537076e-07 
  7.460000e+02   1.377416e-07 
  7.480000e+02   1.457264e-07 
  7.500000e+02   1.380120e-07 
  7.520000e+02   1.593319e-07 
  7.540000e+02   1.856361e-07 
  7.560000e+02   1.543629e-07 
  7.580000e+02   1.681634e-07 
  7.600000e+02   1.679882e-07 
  7.620000e+02   1.593250e-07 
  7.640000e+02   1.613214e-07 
  7.660000e+02   1.832338e-07 
  7.680000e+02   1.951333e-07 
  7.700000e+02   3.045485e-07 
  7.720000e+02   2.300039e-07 
  7.740000e+02   1.311893e-07 
  7.760000e+02   1.387105e-07 
  7.780000e+02   2.046219e-06 
  7.800000e+02   3.737494e-06 
  7.820000e+02   1.709246e-06 
  7.840000e+02   1.489131e-07 
  7.860000e+02   1.420142e-07 
  7.880000e+02   1.696609e-07 
  7.900000e+02   1.673171e-07 
  7.920000e+02   1.544388e-07 
  7.940000e+02   1.677006e-07 
  7.960000e+02   1.460767e-07 
  7.980000e+02   1.457574e-07 
  8.000000e+02   1.567177e-07 
  8.020000e+02   1.341301e-07 
  8.040000e+02   1.364195e-07 
  8.060000e+02   1.336594e-07 
  8.080000e+02   1.243723e-07 
  8.100000e+02   1.365526e-07 
  8.120000e+02   1.530119e-07 
  8.140000e+02   1.442520e-07 
  8.160000e+02   1.252729e-07 
  8.180000e+02   1.255508e-07 
  8.200000e+02   1.425882e-07 
  8.220000e+02   1.492961e-07 
  8.240000e+02   1.387930e-07 
  8.260000e+02   1.526917e-07 
  8.280000e+02   1.348284e-07 
  8.300000e+02   1.362650e-07 
  8.320000e+02   1.299415e-07 
  8.340000e+02   1.264386e-07 
  8.360000e+02   1.255932e-07 
  8.380000e+02   1.404431e-07 
  8.400000e+02   1.566011e-07 
  8.420000e+02   1.383937e-07 
  8.440000e+02   1.375107e-07 
  8.460000e+02   1.403368e-07 
  8.480000e+02   1.518354e-07 
  8.500000e+02   1.516702e-07 
  8.520000e+02   1.398483e-07 
  8.540000e+02   1.388742e-07 
  8.560000e+02   1.553900e-07 
  8.580000e+02   1.472453e-07 
  8.600000e+02   1.452176e-07 
  8.620000e+02   1.386413e-07 
  8.640000e+02   1.359063e-07 
  8.660000e+02   1.341887e-07 
  8.680000e+02   1.534733e-07 
  8.700000e+02   1.725843e-07 
  8.720000e+02   1.990305e-07 
  8.740000e+02   2.126095e-07 
  8.760000e+02   1.795863e-07 
  8.780000e+02   2.097270e-07 
  8.800000e+02   1.562664e-07 
  8.820000e+02   1.716374e-07 
  8.840000e+02   1.570129e-07 
  8.860000e+02   1.437605e-07 
  8.880000e+02   1.504976e-07 
  8.900000e+02   1.510838e-07 
  8.920000e+02   1.585404e-07 
  8.940000e+02   1.697227e-07 
  8.960000e+02   1.550618e-07 
  8.980000e+02   1.221170e-06 
  9.000000e+02   2.184462e-06 
  9.020000e+02   9.794354e-07 
  9.040000e+02   1.450771e-07 
  9.060000e+02   1.442500e-07 
  9.080000e+02   1.501967e-07 
  9.100000e+02   1.666977e-07 
  9.120000e+02   1.499607e-07 
  9.140000e+02   1.366622e-07 
  9.160000e+02   1.488053e-07 
  9.180000e+02   1.447542e-07 
  9.200000e+02   1.563464e-07 
  9.220000e+02   1.597202e-07 
  9.240000e+02   1.437573e-07 
  9.260000e+02   1.835931e-07 
  9.280000e+02   1.710767e-07 
  9.300000e+02   1.402012e-07 
  9.320000e+02   1.375566e-07 
  9.340000e+02   1.287287e-07 
  9.360000e+02   1.473544e-07 
  9.380000e+02   1.436277e-07 
  9.400000e+02   1.627063e-07 
  9.420000e+02   1.419933e-07 
  9.440000e+02   1.136245e-07 
  9.460000e+02   1.277499e-07 
  9.480000e+02   1.241172e-07 
  9.500000e+02   1.248784e-07 
  9.520000e+02   1.455795e-07 
  9.540000e+02   1.473084e-07 
  9.560000e+02   1.403175e-07 
  9.580000e+02   1.447018e-07 
  9.600000e+02   1.530221e-07 
  9.620000e+02   1.371963e-07 
  9.640000e+02   1.318840e-07 
  9.660000e+02   1.430067e-07 
  9.680000e+02   1.598108e-07 
  9.700000e+02   1.467726e-07 
  9.720000e+02   1.259121e-07 
  9.740000e+02   1.395290e-07 
  9.760000e+02   1.521380e-07 
  9.780000e+02   1.544922e-07 
  9.800000e+02   1.404121e-07 
  9.820000e+02   1.260436e-07 
  9.840000e+02   1.453275e-07 
  9.860000e+02   1.552624e-07 
  9.880000e+02   1.610705e-07 
  9.900000e+02   1.536715e-07 
  9.920000e+02   1.437102e-07 
  9.940000e+02   1.483493e-07 
  9.960000e+02   1.549298e-07 
  9.980000e+02   1.463651e-07 
  1.000000e+03   1.556106e-07 
  1.002000e+03   1.509477e-07 
  1.004000e+03   1.246282e-07 
  1.006000e+03   1.384245e-07 
  1.008000e+03   1.544732e-07 
  1.010000e+03   2.521117e-07 
  1.012000e+03   2.141859e-07 
  1.014000e+03   1.368182e-07 
  1.016000e+03   1.489507e-07 
  1.018000e+03   2.492878e-07 
  1.020000e+03   3.819119e-07 
  1.022000e+03   2.026079e-07 
  1.024000e+03   1.254613e-07 
  1.026000e+03   1.464027e-07 
  1.028000e+03   1.394330e-07 
  1.030000e+03   1.501696e-07 
  1.032000e+03   1.569120e-07 
  1.034000e+03   1.597606e-07 
  1.036000e+03   1.517626e-07 
  1.038000e+03   1.464349e-07 
  1.040000e+03   1.420153e-07 
  1.042000e+03   1.563774e-07 
  1.044000e+03   1.408586e-07 
  1.046000e+03   1.542460e-07 
  1.048000e+03   1.371021e-07 
  1.050000e+03   1.275598e-07 
  1.052000e+03   1.293721e-07 
  1.054000e+03   1.620812e-07 
  1.056000e+03   1.500082e-07 
  1.058000e+03   1.216063e-07 
  1.060000e+03   1.550463e-07 
  1.062000e+03   1.478947e-07 
  1.064000e+03   1.359470e-07 
  1.066000e+03   1.421228e-07 
  1.068000e+03   1.332427e-07 
  1.070000e+03   1.339701e-07 
  1.072000e+03   1.380431e-07 
  1.074000e+03   1.310001e-07 
  1.076000e+03   1.460232e-07 
  1.078000e+03   1.492543e-07 
  1.080000e+03   1.625492e-07 
  1.082000e+03   1.454248e-07 
  1.084000e+03   1.378183e-07 
  1.086000e+03   1.359664e-07 
  1.088000e+03   1.238592e-07 
  1.090000e+03   1.388964e-07 
  1.092000e+03   1.462704e-07 
  1.094000e+03   1.585938e-07 
  1.096000e+03   1.540206e-07 
  1.098000e+03   1.454248e-07 
  1.100000e+03   1.522471e-07 
  1.102000e+03   1.404171e-07 
  1.104000e+03   1.511238e-07 
  1.106000e+03   1.440882e-07 
  1.108000e+03   1.398147e-07 
  1.110000e+03   1.427009e-07 
  1.112000e+03   1.353507e-07 
  1.114000e+03   1.310724e-07 
  1.116000e+03   1.257375e-07 
  1.118000e+03   1.311570e-07 
  1.120000e+03   1.383602e-07 
  1.122000e+03   1.503250e-07 
  1.124000e+03   1.521882e-07 
  1.126000e+03   1.450486e-07 
  1.128000e+03   1.345211e-07 
  1.130000e+03   1.353096e-07 
  1.132000e+03   1.213509e-07 
  1.134000e+03   1.330372e-07 
  1.136000e+03   1.486601e-07 
  1.138000e+03   4.697428e-07 
  1.140000e+03   7.782075e-07 
  1.142000e+03   3.683491e-07 
  1.144000e+03   1.580956e-07 
  1.146000e+03   1.499519e-07 
  1.148000e+03   1.626033e-07 
  1.150000e+03   1.480631e-07 
  1.152000e+03   1.493248e-07 
  1.154000e+03   1.446662e-07 
  1.156000e+03   1.492823e-07 
  1.158000e+03   1.543196e-07 
  1.160000e+03   1.452278e-07 
  1.162000e+03   1.396290e-07 
  1.164000e+03   1.405686e-07 
  1.166000e+03   1.477617e-07 
  1.168000e+03   1.580538e-07 
  1.170000e+03   1.513105e-07 
  1.172000e+03   1.498324e-07 
  1.174000e+03   1.466797e-07 
  1.176000e+03   1.448195e-07 
  1.178000e+03   1.412830e-07 
  1.180000e+03   1.533701e-07 
  1.182000e+03   1.557774e-07 
  1.184000e+03   1.555052e-07 
  1.186000e+03   1.492973e-07 
  1.188000e+03   1.522577e-07 
  1.190000e+03   1.449855e-07 
  1.192000e+03   1.472116e-07 
  1.194000e+03   1.535044e-07 
  1.196000e+03   1.462678e-07 
  1.198000e+03   1.604192e-07 
  1.200000e+03   1.722863e-07 
  1.202000e+03   1.330489e-07 
  1.204000e+03   1.574850e-07 
  1.206000e+03   1.751692e-07 
  1.208000e+03   1.612941e-07 
  1.210000e+03   1.573861e-07 
  1.212000e+03   1.639705e-07 
  1.214000e+03   1.420016e-07 
  1.216000e+03   1.392962e-07 
  1.218000e+03   1.508067e-07 
  1.220000e+03   1.405063e-07 
  1.222000e+03   1.385160e-07 
  1.224000e+03   1.368377e-07 
  1.226000e+03   1.533060e-07 
  1.228000e+03   1.480527e-07 
  1.230000e+03   1.543448e-07 
  1.232000e+03   1.629703e-07 
  1.234000e+03   1.518340e-07 
  1.236000e+03   1.541859e-07 
  1.238000e+03   1.519624e-07 
  1.240000e+03   1.683913e-07 
  1.242000e+03   1.598531e-07 
  1.244000e+03   1.483465e-07 
  1.246000e+03   1.423189e-07 
  1.248000e+03   1.334846e-07 
  1.250000e+03   1.435445e-07 
  1.252000e+03   1.373986e-07 
  1.254000e+03   1.374298e-07 
  1.256000e+03   1.359916e-07 
  1.258000e+03   6.394387e-07 
  1.260000e+03   1.089881e-06 
  1.262000e+03   4.899515e-07 
  1.264000e+03   1.480416e-07 
  1.266000e+03   1.495263e-07 
  1.268000e+03   1.438977e-07 
  1.270000e+03   1.358204e-07 
  1.272000e+03   1.372512e-07 
  1.274000e+03   1.392172e-07 
  1.276000e+03   1.515836e-07 
  1.278000e+03   1.528130e-07 
  1.280000e+03   1.496300e-07 
  1.282000e+03   1.459061e-07 
  1.284000e+03   1.478980e-07 
  1.286000e+03   1.550475e-07 
  1.288000e+03   1.656885e-07 
  1.290000e+03   1.485078e-07 
  1.292000e+03   1.434542e-07 
  1.294000e+03   1.233702e-07 
  1.296000e+03   1.348931e-07 
  1.298000e+03   1.293848e-07 
  1.300000e+03   1.510739e-07 
  1.302000e+03   1.701171e-07 
  1.304000e+03   1.489314e-07 
  1.306000e+03   1.458515e-07 
  1.308000e+03   1.664078e-07 
  1.310000e+03   1.816194e-07 
  1.312000e+03   1.516208e-07 
  1.314000e+03   1.323239e-07 
  1.316000e+03   1.398739e-07 
  1.318000e+03   1.444695e-07 
  1.320000e+03   1.555858e-07 
  1.322000e+03   1.427178e-07 
  1.324000e+03   1.359767e-07 
  1.326000e+03   1.460264e-07 
  1.328000e+03   1.713479e-07 
  1.330000e+03   1.717141e-07 
  1.332000e+03   1.712975e-07 
  1.334000e+03   1.556793e-07 
  1.336000e+03   1.294525e-07 
  1.338000e+03   1.675307e-07 
  1.340000e+03   1.567924e-07 
  1.342000e+03   1.301087e-07 
  1.344000e+03   1.423737e-07 
  1.346000e+03   1.394272e-07 
  1.348000e+03   1.464389e-07 
  1.350000e+03   1.430253e-07 
  1.352000e+03   1.601386e-07 
  1.354000e+03   1.745493e-07 
  1.356000e+03   1.586830e-07 
  1.358000e+03   1.482094e-07 
  1.360000e+03   1.461912e-07 
  1.362000e+03   1.493371e-07 
  1.364000e+03   1.470807e-07 
  1.366000e+03   1.492879e-07 
  1.368000e+03   1.519712e-07 
  1.370000e+03   1.592255e-07 
  1.372000e+03   1.634326e-07 
  1.374000e+03   1.533236e-07 
  1.376000e+03   1.442480e-07 
  1.378000e+03   3.248290e-07 
  1.380000e+03   5.181849e-07 
  1.382000e+03   2.716852e-07 
  1.384000e+03   1.520487e-07 
  1.386000e+03   1.548076e-07 
  1.388000e+03   1.520642e-07 
  1.390000e+03   1.636381e-07 
  1.392000e+03   1.537835e-07 
  1.394000e+03   1.570692e-07 
  1.396000e+03   1.598754e-07 
  1.398000e+03   1.616746e-07 
  1.400000e+03   1.678950e-07 
  1.402000e+03   1.675098e-07 
  1.404000e+03   1.414856e-07 
  1.406000e+03   1.546149e-07 
  1.408000e+03   1.559122e-07 
  1.410000e+03   1.727102e-07 
  1.412000e+03   1.632878e-07 
  1.414000e+03   1.477761e-07 
  1.416000e+03   1.561561e-07 
  1.418000e+03   1.579651e-07 
  1.420000e+03   1.662528e-07 
  1.422000e+03   1.500638e-07 
  1.424000e+03   1.533496e-07 
  1.426000e+03   1.685884e-07 
  1.428000e+03   1.668694e-07 
  1.430000e+03   1.561875e-07 
  1.432000e+03   1.635133e-07 
  1.434000e+03   1.510818e-07 
  1.436000e+03   1.454235e-07 
  1.438000e+03   1.602994e-07 
  1.440000e+03   1.637646e-07 
  1.442000e+03   1.551867e-07 
  1.444000e+03   1.485323e-07 
  1.446000e+03   1.517575e-07 
  1.448000e+03   1.532441e-07 
  1.450000e+03   1.440502e-07 
  1.452000e+03   1.371863e-07 
  1.454000e+03   1.221697e-07 
  1.456000e+03   1.470799e-07 
  1.458000e+03   1.639133e-07 
  1.460000e+03   1.612680e-07 
  1.462000e+03   1.637529e-07 
  1.464000e+03   1.425383e-07 
  1.466000e+03   1.487964e-07 
  1.468000e+03   1.689785e-07 
  1.470000e+03   1.520605e-07 
  1.472000e+03   1.610315e-07 
  1.474000e+03   1.680116e-07 
  1.476000e+03   1.606597e-07 
  1.478000e+03   1.501920e-07 
  1.480000e+03   1.606718e-07 
  1.482000e+03   1.716610e-07 
  1.484000e+03   1.766073e-07 
  1.486000e+03   1.769779e-07 
  1.488000e+03   1.638006e-07 
  1.490000e+03   1.668868e-07 
  1.492000e+03   1.807869e-07 
  1.494000e+03   1.603016e-07 
  1.496000e+03   1.531849e-07 
  1.498000e+03   5.038662e-07 
  1.500000e+03   8.264248e-07 
  1.502000e+03   3.682803e-07 
  1.504000e+03   1.539847e-07 
  1.506000e+03   1.683031e-07 
  1.508000e+03   1.809263e-07 
  1.510000e+03   1.616892e-07 
  1.512000e+03   1.500768e-07 
  1.514000e+03   1.572441e-07 
  1.516000e+03   1.703428e-07 
  1.518000e+03   1.613569e-07 
  1.520000e+03   1.463693e-07 
  1.522000e+03   1.402743e-07 
  1.524000e+03   1.439660e-07 
  1.526000e+03   1.569758e-07 
  1.528000e+03   1.463684e-07 
  1.530000e+03   1.516126e-07 
  1.532000e+03   1.459050e-07 
  1.534000e+03   1.383896e-07 
  1.536000e+03   1.329598e-07 
  1.538000e+03   1.554775e-07 
  1.540000e+03   1.662209e-07 
  1.542000e+03   1.546767e-07 
  1.544000e+03   1.486313e-07 
  1.546000e+03   1.474291e-07 
  1.548000e+03   1.407429e-07 
  1.550000e+03   1.479186e-07 
  1.552000e+03   1.617030e-07 
  1.554000e+03   1.609204e-07 
  1.556000e+03   1.653226e-07 
  1.558000e+03   1.697405e-07 
  1.560000e+03   1.667680e-07 
  1.562000e+03   1.460101e-07 
  1.564000e+03   1.458426e-07 
  1.566000e+03   1.556489e-07 
  1.568000e+03   1.737862e-07 
  1.570000e+03   1.636440e-07 
  1.572000e+03   1.578641e-07 
  1.574000e+03   1.514451e-07 
  1.576000e+03   1.529533e-07 
  1.578000e+03   1.447037e-07 
  1.580000e+03   1.364118e-07 
  1.582000e+03   1.403988e-07 
  1.584000e+03   1.441786e-07 
  1.586000e+03   1.569635e-07 
  1.588000e+03   1.460362e-07 
  1.590000e+03   1.444447e-07 
  1.592000e+03   1.451610e-07 
  1.594000e+03   1.678271e-07 
  1.596000e+03   1.753298e-07 
  1.598000e+03   1.703489e-07 
  1.600000e+03   1.585321e-07 
