Input File: 02NSIN.78D
Measure Group: FFT
Measurement: FFT 1
Num of extracted Points: 401
Start Freq: -0 Hz
Span: 800 Hz
FFT Lines:  400 
Window: BMH
Averaging Mode: RMS
Averaging Type: Exp. / Cont.
Number of Avg:   25
Overload reject: Off

    X[Hz]      Vrms/Hz^(1/... 
  0.000000e+00   2.527346e-03 
  2.000000e+00   1.720438e-03 
  4.000000e+00   4.984026e-04 
  6.000000e+00   4.162696e-05 
  8.000000e+00   3.405270e-06 
  1.000000e+01   2.901993e-06 
  1.200000e+01   3.124671e-06 
  1.400000e+01   2.818404e-06 
  1.600000e+01   2.556912e-06 
  1.800000e+01   2.472573e-06 
  2.000000e+01   2.310503e-06 
  2.200000e+01   2.387918e-06 
  2.400000e+01   2.424372e-06 
  2.600000e+01   2.352305e-06 
  2.800000e+01   2.220211e-06 
  3.000000e+01   2.155991e-06 
  3.200000e+01   2.273245e-06 
  3.400000e+01   2.382658e-06 
  3.600000e+01   2.463924e-06 
  3.800000e+01   2.406093e-06 
  4.000000e+01   2.338802e-06 
  4.200000e+01   2.351573e-06 
  4.400000e+01   2.330234e-06 
  4.600000e+01   2.153678e-06 
  4.800000e+01   2.292648e-06 
  5.000000e+01   2.544652e-06 
  5.200000e+01   2.491318e-06 
  5.400000e+01   2.644798e-06 
  5.600000e+01   2.675143e-06 
  5.800000e+01   2.631778e-06 
  6.000000e+01   2.627826e-06 
  6.200000e+01   2.429227e-06 
  6.400000e+01   2.266321e-06 
  6.600000e+01   2.334108e-06 
  6.800000e+01   2.359204e-06 
  7.000000e+01   2.202021e-06 
  7.200000e+01   2.045863e-06 
  7.400000e+01   2.106573e-06 
  7.600000e+01   2.268747e-06 
  7.800000e+01   2.526185e-06 
  8.000000e+01   2.664702e-06 
  8.200000e+01   2.506738e-06 
  8.400000e+01   2.323842e-06 
  8.600000e+01   2.122885e-06 
  8.800000e+01   2.172417e-06 
  9.000000e+01   2.232854e-06 
  9.200000e+01   2.299525e-06 
  9.400000e+01   2.298403e-06 
  9.600000e+01   2.402909e-06 
  9.800000e+01   2.454215e-06 
  1.000000e+02   2.358952e-06 
  1.020000e+02   2.449679e-06 
  1.040000e+02   2.482802e-06 
  1.060000e+02   2.467365e-06 
  1.080000e+02   2.431568e-06 
  1.100000e+02   2.351663e-06 
  1.120000e+02   2.355179e-06 
  1.140000e+02   2.256215e-06 
  1.160000e+02   2.290588e-06 
  1.180000e+02   3.686298e-06 
  1.200000e+02   4.568576e-06 
  1.220000e+02   3.127932e-06 
  1.240000e+02   1.988481e-06 
  1.260000e+02   1.990556e-06 
  1.280000e+02   1.931014e-06 
  1.300000e+02   2.179986e-06 
  1.320000e+02   2.438558e-06 
  1.340000e+02   2.373484e-06 
  1.360000e+02   2.149729e-06 
  1.380000e+02   2.312276e-06 
  1.400000e+02   2.428507e-06 
  1.420000e+02   2.067898e-06 
  1.440000e+02   2.006743e-06 
  1.460000e+02   2.368699e-06 
  1.480000e+02   2.596182e-06 
  1.500000e+02   2.669594e-06 
  1.520000e+02   2.506682e-06 
  1.540000e+02   2.323147e-06 
  1.560000e+02   2.340397e-06 
  1.580000e+02   2.199379e-06 
  1.600000e+02   2.177935e-06 
  1.620000e+02   2.188767e-06 
  1.640000e+02   2.127036e-06 
  1.660000e+02   2.093198e-06 
  1.680000e+02   2.247742e-06 
  1.700000e+02   2.298101e-06 
  1.720000e+02   2.084170e-06 
  1.740000e+02   2.075916e-06 
  1.760000e+02   2.079870e-06 
  1.780000e+02   2.124741e-06 
  1.800000e+02   2.234806e-06 
  1.820000e+02   2.313796e-06 
  1.840000e+02   2.641784e-06 
  1.860000e+02   2.712173e-06 
  1.880000e+02   2.538162e-06 
  1.900000e+02   2.362211e-06 
  1.920000e+02   2.273304e-06 
  1.940000e+02   2.360406e-06 
  1.960000e+02   2.429390e-06 
  1.980000e+02   2.362460e-06 
  2.000000e+02   2.327600e-06 
  2.020000e+02   2.254295e-06 
  2.040000e+02   2.143870e-06 
  2.060000e+02   2.145621e-06 
  2.080000e+02   2.273677e-06 
  2.100000e+02   2.569781e-06 
  2.120000e+02   2.635092e-06 
  2.140000e+02   2.604705e-06 
  2.160000e+02   2.370606e-06 
  2.180000e+02   2.189624e-06 
  2.200000e+02   2.223290e-06 
  2.220000e+02   2.266625e-06 
  2.240000e+02   2.514627e-06 
  2.260000e+02   2.597585e-06 
  2.280000e+02   2.371034e-06 
  2.300000e+02   2.536032e-06 
  2.320000e+02   2.731122e-06 
  2.340000e+02   2.600807e-06 
  2.360000e+02   2.575122e-06 
  2.380000e+02   2.718047e-06 
  2.400000e+02   2.908217e-06 
  2.420000e+02   2.763865e-06 
  2.440000e+02   2.456918e-06 
  2.460000e+02   2.319002e-06 
  2.480000e+02   2.534392e-06 
  2.500000e+02   2.576923e-06 
  2.520000e+02   2.238182e-06 
  2.540000e+02   1.943953e-06 
  2.560000e+02   2.023236e-06 
  2.580000e+02   2.053798e-06 
  2.600000e+02   2.055656e-06 
  2.620000e+02   2.427592e-06 
  2.640000e+02   2.603012e-06 
  2.660000e+02   2.434096e-06 
  2.680000e+02   2.190455e-06 
  2.700000e+02   1.969388e-06 
  2.720000e+02   2.076592e-06 
  2.740000e+02   2.307505e-06 
  2.760000e+02   2.342475e-06 
  2.780000e+02   2.249203e-06 
  2.800000e+02   2.188740e-06 
  2.820000e+02   2.350842e-06 
  2.840000e+02   2.416285e-06 
  2.860000e+02   2.408808e-06 
  2.880000e+02   2.288224e-06 
  2.900000e+02   2.196564e-06 
  2.920000e+02   2.210113e-06 
  2.940000e+02   2.240267e-06 
  2.960000e+02   2.036636e-06 
  2.980000e+02   2.217183e-06 
  3.000000e+02   2.816982e-06 
  3.020000e+02   2.820004e-06 
  3.040000e+02   2.540562e-06 
  3.060000e+02   2.161492e-06 
  3.080000e+02   1.923966e-06 
  3.100000e+02   2.011568e-06 
  3.120000e+02   2.260804e-06 
  3.140000e+02   2.478243e-06 
  3.160000e+02   2.354377e-06 
  3.180000e+02   2.312884e-06 
  3.200000e+02   2.172322e-06 
  3.220000e+02   2.115784e-06 
  3.240000e+02   2.216706e-06 
  3.260000e+02   2.174778e-06 
  3.280000e+02   2.118798e-06 
  3.300000e+02   1.909745e-06 
  3.320000e+02   1.777707e-06 
  3.340000e+02   1.968693e-06 
  3.360000e+02   2.242138e-06 
  3.380000e+02   2.432001e-06 
  3.400000e+02   2.237997e-06 
  3.420000e+02   1.930049e-06 
  3.440000e+02   2.050786e-06 
  3.460000e+02   2.339970e-06 
  3.480000e+02   2.343841e-06 
  3.500000e+02   2.126808e-06 
  3.520000e+02   1.899008e-06 
  3.540000e+02   1.978357e-06 
  3.560000e+02   2.620623e-06 
  3.580000e+02   4.881103e-06 
  3.600000e+02   6.510300e-06 
  3.620000e+02   4.955565e-06 
  3.640000e+02   2.943605e-06 
  3.660000e+02   2.325295e-06 
  3.680000e+02   2.290646e-06 
  3.700000e+02   2.286228e-06 
  3.720000e+02   1.982610e-06 
  3.740000e+02   2.062187e-06 
  3.760000e+02   2.113953e-06 
  3.780000e+02   1.982638e-06 
  3.800000e+02   1.842867e-06 
  3.820000e+02   2.004376e-06 
  3.840000e+02   2.003285e-06 
  3.860000e+02   1.979699e-06 
  3.880000e+02   2.165985e-06 
  3.900000e+02   2.135856e-06 
  3.920000e+02   2.242864e-06 
  3.940000e+02   2.384673e-06 
  3.960000e+02   2.230766e-06 
  3.980000e+02   2.052376e-06 
  4.000000e+02   2.102117e-06 
  4.020000e+02   2.151373e-06 
  4.040000e+02   2.243307e-06 
  4.060000e+02   2.082907e-06 
  4.080000e+02   2.073425e-06 
  4.100000e+02   2.167896e-06 
  4.120000e+02   2.182798e-06 
  4.140000e+02   1.983081e-06 
  4.160000e+02   1.993316e-06 
  4.180000e+02   2.405960e-06 
  4.200000e+02   2.591594e-06 
  4.220000e+02   2.387544e-06 
  4.240000e+02   2.141722e-06 
  4.260000e+02   2.124383e-06 
  4.280000e+02   1.957712e-06 
  4.300000e+02   2.005098e-06 
  4.320000e+02   2.021901e-06 
  4.340000e+02   1.870752e-06 
  4.360000e+02   1.864472e-06 
  4.380000e+02   1.988698e-06 
  4.400000e+02   2.128611e-06 
  4.420000e+02   2.035211e-06 
  4.440000e+02   2.044972e-06 
  4.460000e+02   2.161264e-06 
  4.480000e+02   2.034353e-06 
  4.500000e+02   1.795454e-06 
  4.520000e+02   1.954676e-06 
  4.540000e+02   2.027828e-06 
  4.560000e+02   1.936423e-06 
  4.580000e+02   1.920709e-06 
  4.600000e+02   1.876515e-06 
  4.620000e+02   2.105864e-06 
  4.640000e+02   2.405341e-06 
  4.660000e+02   2.202186e-06 
  4.680000e+02   1.913584e-06 
  4.700000e+02   2.014189e-06 
  4.720000e+02   2.300035e-06 
  4.740000e+02   2.377958e-06 
  4.760000e+02   2.513957e-06 
  4.780000e+02   2.814912e-06 
  4.800000e+02   2.741970e-06 
  4.820000e+02   2.329508e-06 
  4.840000e+02   2.332265e-06 
  4.860000e+02   2.323859e-06 
  4.880000e+02   2.123669e-06 
  4.900000e+02   2.085026e-06 
  4.920000e+02   2.188120e-06 
  4.940000e+02   2.255423e-06 
  4.960000e+02   2.398077e-06 
  4.980000e+02   2.369705e-06 
  5.000000e+02   2.288161e-06 
  5.020000e+02   2.232446e-06 
  5.040000e+02   2.206299e-06 
  5.060000e+02   2.047741e-06 
  5.080000e+02   2.054828e-06 
  5.100000e+02   2.114948e-06 
  5.120000e+02   2.397315e-06 
  5.140000e+02   2.720959e-06 
  5.160000e+02   2.695488e-06 
  5.180000e+02   2.470854e-06 
  5.200000e+02   2.243202e-06 
  5.220000e+02   2.336194e-06 
  5.240000e+02   2.220854e-06 
  5.260000e+02   2.180860e-06 
  5.280000e+02   2.302011e-06 
  5.300000e+02   2.207395e-06 
  5.320000e+02   2.114316e-06 
  5.340000e+02   2.178392e-06 
  5.360000e+02   2.264734e-06 
  5.380000e+02   2.315019e-06 
  5.400000e+02   2.328407e-06 
  5.420000e+02   2.306829e-06 
  5.440000e+02   2.392489e-06 
  5.460000e+02   2.421497e-06 
  5.480000e+02   2.094421e-06 
  5.500000e+02   1.832270e-06 
  5.520000e+02   1.575001e-06 
  5.540000e+02   1.591207e-06 
  5.560000e+02   1.568310e-06 
  5.580000e+02   1.776148e-06 
  5.600000e+02   1.897355e-06 
  5.620000e+02   1.980104e-06 
  5.640000e+02   1.987795e-06 
  5.660000e+02   1.826383e-06 
  5.680000e+02   1.912995e-06 
  5.700000e+02   2.375569e-06 
  5.720000e+02   2.496087e-06 
  5.740000e+02   2.114355e-06 
  5.760000e+02   1.957372e-06 
  5.780000e+02   1.903422e-06 
  5.800000e+02   2.263302e-06 
  5.820000e+02   2.600734e-06 
  5.840000e+02   2.388221e-06 
  5.860000e+02   2.073710e-06 
  5.880000e+02   2.133220e-06 
  5.900000e+02   2.132768e-06 
  5.920000e+02   2.024596e-06 
  5.940000e+02   2.089380e-06 
  5.960000e+02   2.181654e-06 
  5.980000e+02   2.475416e-06 
  6.000000e+02   2.817113e-06 
  6.020000e+02   2.528029e-06 
  6.040000e+02   2.138882e-06 
  6.060000e+02   2.075323e-06 
  6.080000e+02   2.048943e-06 
  6.100000e+02   1.965210e-06 
  6.120000e+02   1.945396e-06 
  6.140000e+02   1.969441e-06 
  6.160000e+02   1.955966e-06 
  6.180000e+02   2.185708e-06 
  6.200000e+02   2.454254e-06 
  6.220000e+02   2.328850e-06 
  6.240000e+02   2.208349e-06 
  6.260000e+02   2.265185e-06 
  6.280000e+02   2.332546e-06 
  6.300000e+02   2.333472e-06 
  6.320000e+02   2.195041e-06 
  6.340000e+02   1.996676e-06 
  6.360000e+02   1.938311e-06 
  6.380000e+02   1.928045e-06 
  6.400000e+02   1.941962e-06 
  6.420000e+02   1.953115e-06 
  6.440000e+02   2.017552e-06 
  6.460000e+02   2.013727e-06 
  6.480000e+02   1.849898e-06 
  6.500000e+02   2.142237e-06 
  6.520000e+02   2.366563e-06 
  6.540000e+02   2.138612e-06 
  6.560000e+02   2.246100e-06 
  6.580000e+02   2.393673e-06 
  6.600000e+02   2.385562e-06 
  6.620000e+02   2.352901e-06 
  6.640000e+02   2.199841e-06 
  6.660000e+02   2.066019e-06 
  6.680000e+02   2.238013e-06 
  6.700000e+02   2.157287e-06 
  6.720000e+02   1.791923e-06 
  6.740000e+02   1.769696e-06 
  6.760000e+02   1.855816e-06 
  6.780000e+02   1.960947e-06 
  6.800000e+02   2.014744e-06 
  6.820000e+02   2.105611e-06 
  6.840000e+02   2.249783e-06 
  6.860000e+02   2.183850e-06 
  6.880000e+02   2.147198e-06 
  6.900000e+02   2.096707e-06 
  6.920000e+02   2.056269e-06 
  6.940000e+02   1.873049e-06 
  6.960000e+02   1.764578e-06 
  6.980000e+02   1.823311e-06 
  7.000000e+02   1.905004e-06 
  7.020000e+02   2.008191e-06 
  7.040000e+02   2.129389e-06 
  7.060000e+02   2.246239e-06 
  7.080000e+02   2.267477e-06 
  7.100000e+02   2.373415e-06 
  7.120000e+02   2.226835e-06 
  7.140000e+02   1.839883e-06 
  7.160000e+02   1.827755e-06 
  7.180000e+02   3.127860e-06 
  7.200000e+02   4.191508e-06 
  7.220000e+02   3.171988e-06 
  7.240000e+02   1.985489e-06 
  7.260000e+02   1.828649e-06 
  7.280000e+02   1.936828e-06 
  7.300000e+02   2.011365e-06 
  7.320000e+02   2.044524e-06 
  7.340000e+02   2.010778e-06 
  7.360000e+02   2.040504e-06 
  7.380000e+02   2.088095e-06 
  7.400000e+02   2.197061e-06 
  7.420000e+02   2.086965e-06 
  7.440000e+02   1.791917e-06 
  7.460000e+02   1.755596e-06 
  7.480000e+02   1.973770e-06 
  7.500000e+02   1.934108e-06 
  7.520000e+02   1.843339e-06 
  7.540000e+02   1.860867e-06 
  7.560000e+02   2.255784e-06 
  7.580000e+02   2.511742e-06 
  7.600000e+02   2.397417e-06 
  7.620000e+02   2.254760e-06 
  7.640000e+02   2.323918e-06 
  7.660000e+02   2.349351e-06 
  7.680000e+02   2.285191e-06 
  7.700000e+02   2.330437e-06 
  7.720000e+02   2.227699e-06 
  7.740000e+02   2.192828e-06 
  7.760000e+02   2.330505e-06 
  7.780000e+02   2.312088e-06 
  7.800000e+02   2.192774e-06 
  7.820000e+02   2.100701e-06 
  7.840000e+02   2.181563e-06 
  7.860000e+02   2.116641e-06 
  7.880000e+02   2.016920e-06 
  7.900000e+02   2.108209e-06 
  7.920000e+02   2.215094e-06 
  7.940000e+02   2.312737e-06 
  7.960000e+02   2.395138e-06 
  7.980000e+02   2.352954e-06 
  8.000000e+02   2.155084e-06 
