Input File: 02NSIN.78D
Measure Group: FFT
Measurement: FFT 1
Num of extracted Points: 401
Start Freq: -0 Hz
Span: 1.6 kHz
FFT Lines:  400 
Window: BMH
Averaging Mode: RMS
Averaging Type: Exp. / Cont.
Number of Avg:  100
Overload reject: Off

    X[Hz]      Vrms/Hz^(1/... 
  0.000000e+00   4.435868e-05 
  4.000000e+00   3.019334e-05 
  8.000000e+00   8.745837e-06 
  1.200000e+01   7.503761e-07 
  1.600000e+01   1.382014e-07 
  2.000000e+01   1.266917e-07 
  2.400000e+01   1.327198e-07 
  2.800000e+01   1.434987e-07 
  3.200000e+01   1.350467e-07 
  3.600000e+01   1.302908e-07 
  4.000000e+01   1.231338e-07 
  4.400000e+01   1.169971e-07 
  4.800000e+01   2.186258e-07 
  5.200000e+01   2.225908e-06 
  5.600000e+01   7.685541e-06 
  6.000000e+01   1.130435e-05 
  6.400000e+01   7.696657e-06 
  6.800000e+01   2.221596e-06 
  7.200000e+01   2.098965e-07 
  7.600000e+01   1.214743e-07 
  8.000000e+01   1.191667e-07 
  8.400000e+01   1.195845e-07 
  8.800000e+01   1.324868e-07 
  9.200000e+01   1.422709e-07 
  9.600000e+01   1.283773e-07 
  1.000000e+02   1.214913e-07 
  1.040000e+02   1.365872e-07 
  1.080000e+02   4.068373e-07 
  1.120000e+02   1.324932e-06 
  1.160000e+02   1.922075e-06 
  1.200000e+02   1.316592e-06 
  1.240000e+02   4.283638e-07 
  1.280000e+02   1.465321e-07 
  1.320000e+02   1.582765e-07 
  1.360000e+02   1.586323e-07 
  1.400000e+02   1.512594e-07 
  1.440000e+02   1.720402e-07 
  1.480000e+02   1.855717e-07 
  1.520000e+02   1.620721e-07 
  1.560000e+02   1.496993e-07 
  1.600000e+02   1.600242e-07 
  1.640000e+02   1.684587e-07 
  1.680000e+02   2.113077e-07 
  1.720000e+02   4.149699e-07 
  1.760000e+02   1.033204e-06 
  1.800000e+02   1.459226e-06 
  1.840000e+02   9.966042e-07 
  1.880000e+02   3.250171e-07 
  1.920000e+02   1.954589e-07 
  1.960000e+02   2.893886e-07 
  2.000000e+02   2.903436e-07 
  2.040000e+02   2.097288e-07 
  2.080000e+02   1.913792e-07 
  2.120000e+02   1.881300e-07 
  2.160000e+02   1.764772e-07 
  2.200000e+02   1.847537e-07 
  2.240000e+02   6.375374e-07 
  2.280000e+02   2.060030e-06 
  2.320000e+02   2.929393e-06 
  2.360000e+02   1.939768e-06 
  2.400000e+02   5.889893e-07 
  2.440000e+02   2.256914e-07 
  2.480000e+02   2.259969e-07 
  2.520000e+02   2.732949e-07 
  2.560000e+02   3.100273e-07 
  2.600000e+02   2.498199e-07 
  2.640000e+02   2.521180e-07 
  2.680000e+02   2.854011e-07 
  2.720000e+02   2.443262e-07 
  2.760000e+02   2.227538e-07 
  2.800000e+02   2.144809e-07 
  2.840000e+02   2.200601e-07 
  2.880000e+02   3.141617e-07 
  2.920000e+02   1.049681e-06 
  2.960000e+02   3.442660e-06 
  3.000000e+02   5.082628e-06 
  3.040000e+02   3.478077e-06 
  3.080000e+02   1.020712e-06 
  3.120000e+02   2.408756e-07 
  3.160000e+02   2.454737e-07 
  3.200000e+02   2.556937e-07 
  3.240000e+02   2.671740e-07 
  3.280000e+02   2.746253e-07 
  3.320000e+02   2.694689e-07 
  3.360000e+02   2.554821e-07 
  3.400000e+02   2.793014e-07 
  3.440000e+02   5.009513e-07 
  3.480000e+02   6.433764e-07 
  3.520000e+02   4.721653e-07 
  3.560000e+02   5.805878e-07 
  3.600000e+02   8.091249e-07 
  3.640000e+02   5.910913e-07 
  3.680000e+02   2.986522e-07 
  3.720000e+02   2.585145e-07 
  3.760000e+02   2.591828e-07 
  3.800000e+02   2.619787e-07 
  3.840000e+02   2.772377e-07 
  3.880000e+02   3.526156e-07 
  3.920000e+02   6.496807e-07 
  3.960000e+02   8.767921e-07 
  4.000000e+02   7.040676e-07 
  4.040000e+02   4.307032e-07 
  4.080000e+02   3.246203e-07 
  4.120000e+02   3.322819e-07 
  4.160000e+02   6.515684e-07 
  4.200000e+02   9.180189e-07 
  4.240000e+02   6.603413e-07 
  4.280000e+02   3.511657e-07 
  4.320000e+02   2.987285e-07 
  4.360000e+02   2.924017e-07 
  4.400000e+02   3.360877e-07 
  4.440000e+02   3.884734e-07 
  4.480000e+02   3.802767e-07 
  4.520000e+02   3.272698e-07 
  4.560000e+02   7.683658e-07 
  4.600000e+02   2.286543e-06 
  4.640000e+02   3.125128e-06 
  4.680000e+02   1.993358e-06 
  4.720000e+02   6.141836e-07 
  4.760000e+02   3.436516e-07 
  4.800000e+02   3.638067e-07 
  4.840000e+02   3.531910e-07 
  4.880000e+02   3.560950e-07 
  4.920000e+02   3.509307e-07 
  4.960000e+02   3.196183e-07 
  5.000000e+02   2.981319e-07 
  5.040000e+02   3.093630e-07 
  5.080000e+02   3.358729e-07 
  5.120000e+02   3.698119e-07 
  5.160000e+02   4.127419e-07 
  5.200000e+02   4.867424e-07 
  5.240000e+02   4.581724e-07 
  5.280000e+02   3.598817e-07 
  5.320000e+02   4.315470e-07 
  5.360000e+02   9.338382e-07 
  5.400000e+02   1.314165e-06 
  5.440000e+02   9.587320e-07 
  5.480000e+02   5.367352e-07 
  5.520000e+02   4.095865e-07 
  5.560000e+02   3.446149e-07 
  5.600000e+02   3.432129e-07 
  5.640000e+02   3.526294e-07 
  5.680000e+02   3.694649e-07 
  5.720000e+02   1.047588e-06 
  5.760000e+02   3.078545e-06 
  5.800000e+02   4.132343e-06 
  5.840000e+02   2.594428e-06 
  5.880000e+02   1.066000e-06 
  5.920000e+02   1.337425e-06 
  5.960000e+02   1.309116e-06 
  6.000000e+02   8.182035e-07 
  6.040000e+02   4.280104e-07 
  6.080000e+02   3.779107e-07 
  6.120000e+02   3.876735e-07 
  6.160000e+02   3.871241e-07 
  6.200000e+02   3.902333e-07 
  6.240000e+02   3.757652e-07 
  6.280000e+02   3.744861e-07 
  6.320000e+02   4.063204e-07 
  6.360000e+02   4.743833e-07 
  6.400000e+02   5.228453e-07 
  6.440000e+02   4.974808e-07 
  6.480000e+02   4.560816e-07 
  6.520000e+02   4.310863e-07 
  6.560000e+02   7.134726e-07 
  6.600000e+02   9.780530e-07 
  6.640000e+02   7.716367e-07 
  6.680000e+02   5.131342e-07 
  6.720000e+02   4.106716e-07 
  6.760000e+02   3.630991e-07 
  6.800000e+02   3.783835e-07 
  6.840000e+02   3.796499e-07 
  6.880000e+02   4.850019e-07 
  6.920000e+02   1.002110e-06 
  6.960000e+02   1.272411e-06 
  7.000000e+02   8.317247e-07 
  7.040000e+02   4.353354e-07 
  7.080000e+02   4.335544e-07 
  7.120000e+02   4.346690e-07 
  7.160000e+02   4.248673e-07 
  7.200000e+02   4.496206e-07 
  7.240000e+02   4.333578e-07 
  7.280000e+02   3.932046e-07 
  7.320000e+02   4.022621e-07 
  7.360000e+02   4.500445e-07 
  7.400000e+02   4.940618e-07 
  7.440000e+02   5.156162e-07 
  7.480000e+02   4.763696e-07 
  7.520000e+02   4.601173e-07 
  7.560000e+02   4.655146e-07 
  7.600000e+02   4.388883e-07 
  7.640000e+02   4.417033e-07 
  7.680000e+02   4.814929e-07 
  7.720000e+02   6.895468e-07 
  7.760000e+02   1.784140e-06 
  7.800000e+02   2.619664e-06 
  7.840000e+02   1.912979e-06 
  7.880000e+02   1.317952e-06 
  7.920000e+02   1.400018e-06 
  7.960000e+02   1.211739e-06 
  8.000000e+02   7.317883e-07 
  8.040000e+02   8.882141e-07 
  8.080000e+02   2.345111e-06 
  8.120000e+02   3.055183e-06 
  8.160000e+02   1.878824e-06 
  8.200000e+02   6.173938e-07 
  8.240000e+02   4.441266e-07 
  8.280000e+02   4.958342e-07 
  8.320000e+02   5.055108e-07 
  8.360000e+02   5.731605e-07 
  8.400000e+02   7.117528e-07 
  8.440000e+02   7.053047e-07 
  8.480000e+02   5.724345e-07 
  8.520000e+02   4.853107e-07 
  8.560000e+02   5.096804e-07 
  8.600000e+02   5.252615e-07 
  8.640000e+02   6.262123e-07 
  8.680000e+02   6.796787e-07 
  8.720000e+02   6.068063e-07 
  8.760000e+02   5.325920e-07 
  8.800000e+02   4.653462e-07 
  8.840000e+02   4.452630e-07 
  8.880000e+02   4.714448e-07 
  8.920000e+02   5.902541e-07 
  8.960000e+02   1.094430e-06 
  9.000000e+02   1.521623e-06 
  9.040000e+02   1.122409e-06 
  9.080000e+02   5.640054e-07 
  9.120000e+02   4.315036e-07 
  9.160000e+02   4.322278e-07 
  9.200000e+02   1.233097e-06 
  9.240000e+02   3.479329e-06 
  9.280000e+02   4.457332e-06 
  9.320000e+02   2.647835e-06 
  9.360000e+02   7.756851e-07 
  9.400000e+02   5.273143e-07 
  9.440000e+02   6.038113e-07 
  9.480000e+02   6.222582e-07 
  9.520000e+02   5.622351e-07 
  9.560000e+02   5.651435e-07 
  9.600000e+02   6.076410e-07 
  9.640000e+02   5.367156e-07 
  9.680000e+02   4.866329e-07 
  9.720000e+02   4.852811e-07 
  9.760000e+02   4.952075e-07 
  9.800000e+02   6.664717e-07 
  9.840000e+02   1.183346e-06 
  9.880000e+02   1.411434e-06 
  9.920000e+02   1.296533e-06 
  9.960000e+02   1.081796e-06 
  1.000000e+03   6.582978e-07 
  1.004000e+03   5.090606e-07 
  1.008000e+03   5.279903e-07 
  1.012000e+03   5.931194e-07 
  1.016000e+03   1.218066e-06 
  1.020000e+03   1.783861e-06 
  1.024000e+03   1.313564e-06 
  1.028000e+03   6.428331e-07 
  1.032000e+03   5.382811e-07 
  1.036000e+03   7.176563e-07 
  1.040000e+03   1.544203e-06 
  1.044000e+03   1.911844e-06 
  1.048000e+03   1.167026e-06 
  1.052000e+03   5.435035e-07 
  1.056000e+03   5.049214e-07 
  1.060000e+03   4.968023e-07 
  1.064000e+03   5.956065e-07 
  1.068000e+03   7.054131e-07 
  1.072000e+03   7.384539e-07 
  1.076000e+03   8.096769e-07 
  1.080000e+03   9.162974e-07 
  1.084000e+03   8.385289e-07 
  1.088000e+03   7.807586e-07 
  1.092000e+03   9.787699e-07 
  1.096000e+03   1.173310e-06 
  1.100000e+03   1.222653e-06 
  1.104000e+03   1.204671e-06 
  1.108000e+03   1.107690e-06 
  1.112000e+03   8.930314e-07 
  1.116000e+03   6.904170e-07 
  1.120000e+03   6.206673e-07 
  1.124000e+03   5.788200e-07 
  1.128000e+03   5.870700e-07 
  1.132000e+03   7.505473e-07 
  1.136000e+03   1.400588e-06 
  1.140000e+03   1.975108e-06 
  1.144000e+03   1.578322e-06 
  1.148000e+03   1.009939e-06 
  1.152000e+03   1.167595e-06 
  1.156000e+03   2.243856e-06 
  1.160000e+03   2.683505e-06 
  1.164000e+03   1.703020e-06 
  1.168000e+03   1.218110e-06 
  1.172000e+03   1.293985e-06 
  1.176000e+03   1.119378e-06 
  1.180000e+03   1.199635e-06 
  1.184000e+03   1.477674e-06 
  1.188000e+03   1.314827e-06 
  1.192000e+03   1.144153e-06 
  1.196000e+03   1.099123e-06 
  1.200000e+03   1.137553e-06 
  1.204000e+03   1.057299e-06 
  1.208000e+03   8.259300e-07 
  1.212000e+03   7.420230e-07 
  1.216000e+03   7.790101e-07 
  1.220000e+03   1.026676e-06 
  1.224000e+03   1.377220e-06 
  1.228000e+03   1.432317e-06 
  1.232000e+03   1.184691e-06 
  1.236000e+03   9.238888e-07 
  1.240000e+03   1.011160e-06 
  1.244000e+03   1.089685e-06 
  1.248000e+03   9.961301e-07 
  1.252000e+03   1.072320e-06 
  1.256000e+03   1.655584e-06 
  1.260000e+03   2.345705e-06 
  1.264000e+03   2.590966e-06 
  1.268000e+03   3.275176e-06 
  1.272000e+03   4.804952e-06 
  1.276000e+03   5.479000e-06 
  1.280000e+03   4.187129e-06 
  1.284000e+03   3.344588e-06 
  1.288000e+03   3.447041e-06 
  1.292000e+03   3.437772e-06 
  1.296000e+03   2.942718e-06 
  1.300000e+03   2.542295e-06 
  1.304000e+03   2.496179e-06 
  1.308000e+03   2.762909e-06 
  1.312000e+03   2.928489e-06 
  1.316000e+03   2.673487e-06 
  1.320000e+03   2.084772e-06 
  1.324000e+03   1.742900e-06 
  1.328000e+03   1.775376e-06 
  1.332000e+03   1.964882e-06 
  1.336000e+03   2.574053e-06 
  1.340000e+03   4.001082e-06 
  1.344000e+03   4.764840e-06 
  1.348000e+03   4.182780e-06 
  1.352000e+03   4.530862e-06 
  1.356000e+03   4.634993e-06 
  1.360000e+03   3.550353e-06 
  1.364000e+03   2.517622e-06 
  1.368000e+03   2.235846e-06 
  1.372000e+03   2.693658e-06 
  1.376000e+03   2.688965e-06 
  1.380000e+03   2.144930e-06 
  1.384000e+03   1.621751e-06 
  1.388000e+03   2.060533e-06 
  1.392000e+03   2.262700e-06 
  1.396000e+03   1.344589e-06 
  1.400000e+03   8.305578e-07 
  1.404000e+03   8.044072e-07 
  1.408000e+03   8.484266e-07 
  1.412000e+03   8.430581e-07 
  1.416000e+03   8.779053e-07 
  1.420000e+03   9.268838e-07 
  1.424000e+03   8.317076e-07 
  1.428000e+03   7.336761e-07 
  1.432000e+03   6.899984e-07 
  1.436000e+03   8.511716e-07 
  1.440000e+03   1.088873e-06 
  1.444000e+03   9.468571e-07 
  1.448000e+03   7.212623e-07 
  1.452000e+03   6.837222e-07 
  1.456000e+03   7.349317e-07 
  1.460000e+03   8.829862e-07 
  1.464000e+03   1.040730e-06 
  1.468000e+03   1.047311e-06 
  1.472000e+03   1.364865e-06 
  1.476000e+03   2.031183e-06 
  1.480000e+03   2.619174e-06 
  1.484000e+03   2.451137e-06 
  1.488000e+03   1.861424e-06 
  1.492000e+03   1.788985e-06 
  1.496000e+03   2.048170e-06 
  1.500000e+03   2.426141e-06 
  1.504000e+03   2.480306e-06 
  1.508000e+03   2.340330e-06 
  1.512000e+03   1.887116e-06 
  1.516000e+03   1.476317e-06 
  1.520000e+03   1.169834e-06 
  1.524000e+03   1.020912e-06 
  1.528000e+03   9.505237e-07 
  1.532000e+03   8.208984e-07 
  1.536000e+03   8.018262e-07 
  1.540000e+03   9.625652e-07 
  1.544000e+03   1.031561e-06 
  1.548000e+03   1.104365e-06 
  1.552000e+03   1.086371e-06 
  1.556000e+03   9.508449e-07 
  1.560000e+03   9.612290e-07 
  1.564000e+03   8.021462e-07 
  1.568000e+03   6.628202e-07 
  1.572000e+03   7.602425e-07 
  1.576000e+03   1.042032e-06 
  1.580000e+03   1.163576e-06 
  1.584000e+03   9.575061e-07 
  1.588000e+03   1.045729e-06 
  1.592000e+03   9.784904e-07 
  1.596000e+03   7.631204e-07 
  1.600000e+03   6.555383e-07 
