Input File: 02NSIN.78D
Measure Group: FFT
Measurement: FFT 1
Num of extracted Points: 801
Start Freq: -0 Hz
Span: 1.6 kHz
FFT Lines:  800 
Window: BMH
Averaging Mode: RMS
Averaging Type: Exp. / Cont.
Number of Avg:   10
Overload reject: Off

    X[Hz]      Vrms/Hz^(1/... 
  0.000000e+00   1.237808e-03 
  2.000000e+00   8.423493e-04 
  4.000000e+00   2.436594e-04 
  6.000000e+00   2.009322e-05 
  8.000000e+00   3.214113e-07 
  1.000000e+01   2.482783e-07 
  1.200000e+01   2.101987e-07 
  1.400000e+01   1.848372e-07 
  1.600000e+01   1.637359e-07 
  1.800000e+01   1.565564e-07 
  2.000000e+01   1.413427e-07 
  2.200000e+01   1.250197e-07 
  2.400000e+01   1.063799e-07 
  2.600000e+01   9.740180e-08 
  2.800000e+01   1.104571e-07 
  3.000000e+01   1.163546e-07 
  3.200000e+01   1.058905e-07 
  3.400000e+01   1.018770e-07 
  3.600000e+01   1.053738e-07 
  3.800000e+01   9.944596e-08 
  4.000000e+01   7.878242e-08 
  4.200000e+01   6.425795e-08 
  4.400000e+01   6.488706e-08 
  4.600000e+01   7.474097e-08 
  4.800000e+01   7.830777e-08 
  5.000000e+01   7.661814e-08 
  5.200000e+01   7.363147e-08 
  5.400000e+01   6.735992e-07 
  5.600000e+01   8.158668e-06 
  5.800000e+01   2.811102e-05 
  6.000000e+01   4.117316e-05 
  6.200000e+01   2.792000e-05 
  6.400000e+01   8.034376e-06 
  6.600000e+01   6.623917e-07 
  6.800000e+01   1.075249e-07 
  7.000000e+01   9.326245e-08 
  7.200000e+01   8.929747e-08 
  7.400000e+01   8.917226e-08 
  7.600000e+01   8.663906e-08 
  7.800000e+01   7.304429e-08 
  8.000000e+01   6.771131e-08 
  8.200000e+01   8.024641e-08 
  8.400000e+01   7.937017e-08 
  8.600000e+01   6.603729e-08 
  8.800000e+01   5.936582e-08 
  9.000000e+01   5.523453e-08 
  9.200000e+01   5.283507e-08 
  9.400000e+01   5.677786e-08 
  9.600000e+01   6.226521e-08 
  9.800000e+01   5.992035e-08 
  1.000000e+02   5.952483e-08 
  1.020000e+02   6.389773e-08 
  1.040000e+02   6.927981e-08 
  1.060000e+02   6.617148e-08 
  1.080000e+02   5.574271e-08 
  1.100000e+02   5.519588e-08 
  1.120000e+02   6.010236e-08 
  1.140000e+02   6.438690e-08 
  1.160000e+02   1.885675e-07 
  1.180000e+02   5.842677e-07 
  1.200000e+02   8.421376e-07 
  1.220000e+02   5.733623e-07 
  1.240000e+02   1.757425e-07 
  1.260000e+02   5.620547e-08 
  1.280000e+02   5.453984e-08 
  1.300000e+02   5.989536e-08 
  1.320000e+02   6.332615e-08 
  1.340000e+02   6.043037e-08 
  1.360000e+02   5.668753e-08 
  1.380000e+02   5.450100e-08 
  1.400000e+02   5.074050e-08 
  1.420000e+02   4.849178e-08 
  1.440000e+02   5.084829e-08 
  1.460000e+02   4.923760e-08 
  1.480000e+02   5.019466e-08 
  1.500000e+02   4.932440e-08 
  1.520000e+02   4.364502e-08 
  1.540000e+02   4.144292e-08 
  1.560000e+02   4.653808e-08 
  1.580000e+02   4.823312e-08 
  1.600000e+02   3.991178e-08 
  1.620000e+02   3.594587e-08 
  1.640000e+02   4.423221e-08 
  1.660000e+02   4.863051e-08 
  1.680000e+02   4.327681e-08 
  1.700000e+02   4.501009e-08 
  1.720000e+02   5.226920e-08 
  1.740000e+02   1.543702e-07 
  1.760000e+02   1.581741e-06 
  1.780000e+02   5.373176e-06 
  1.800000e+02   7.810496e-06 
  1.820000e+02   5.256531e-06 
  1.840000e+02   1.499600e-06 
  1.860000e+02   1.361040e-07 
  1.880000e+02   5.264433e-08 
  1.900000e+02   5.381301e-08 
  1.920000e+02   5.037160e-08 
  1.940000e+02   4.569228e-08 
  1.960000e+02   4.878497e-08 
  1.980000e+02   4.690210e-08 
  2.000000e+02   3.903315e-08 
  2.020000e+02   4.447013e-08 
  2.040000e+02   5.666056e-08 
  2.060000e+02   5.299336e-08 
  2.080000e+02   3.878129e-08 
  2.100000e+02   4.266317e-08 
  2.120000e+02   4.534215e-08 
  2.140000e+02   4.307588e-08 
  2.160000e+02   4.600492e-08 
  2.180000e+02   5.205701e-08 
  2.200000e+02   5.064081e-08 
  2.220000e+02   4.981866e-08 
  2.240000e+02   4.931959e-08 
  2.260000e+02   4.630499e-08 
  2.280000e+02   4.290689e-08 
  2.300000e+02   4.404017e-08 
  2.320000e+02   4.756052e-08 
  2.340000e+02   4.986494e-08 
  2.360000e+02   8.512452e-08 
  2.380000e+02   2.349746e-07 
  2.400000e+02   3.384993e-07 
  2.420000e+02   2.306806e-07 
  2.440000e+02   7.296069e-08 
  2.460000e+02   5.035085e-08 
  2.480000e+02   5.165706e-08 
  2.500000e+02   4.846370e-08 
  2.520000e+02   5.012676e-08 
  2.540000e+02   4.808965e-08 
  2.560000e+02   4.266597e-08 
  2.580000e+02   4.423841e-08 
  2.600000e+02   5.240608e-08 
  2.620000e+02   5.264433e-08 
  2.640000e+02   4.975031e-08 
  2.660000e+02   4.472320e-08 
  2.680000e+02   3.854286e-08 
  2.700000e+02   3.699505e-08 
  2.720000e+02   4.382220e-08 
  2.740000e+02   4.846617e-08 
  2.760000e+02   4.487707e-08 
  2.780000e+02   3.520733e-08 
  2.800000e+02   3.511154e-08 
  2.820000e+02   3.986069e-08 
  2.840000e+02   3.991522e-08 
  2.860000e+02   4.834879e-08 
  2.880000e+02   5.637207e-08 
  2.900000e+02   5.124495e-08 
  2.920000e+02   4.628109e-08 
  2.940000e+02   1.029725e-07 
  2.960000e+02   9.920378e-07 
  2.980000e+02   3.328887e-06 
  3.000000e+02   4.799391e-06 
  3.020000e+02   3.207988e-06 
  3.040000e+02   9.081819e-07 
  3.060000e+02   8.484520e-08 
  3.080000e+02   4.535316e-08 
  3.100000e+02   4.259745e-08 
  3.120000e+02   4.024317e-08 
  3.140000e+02   3.920013e-08 
  3.160000e+02   4.162217e-08 
  3.180000e+02   4.244982e-08 
  3.200000e+02   3.891810e-08 
  3.220000e+02   4.460510e-08 
  3.240000e+02   4.460761e-08 
  3.260000e+02   4.534939e-08 
  3.280000e+02   4.472875e-08 
  3.300000e+02   3.832098e-08 
  3.320000e+02   3.613079e-08 
  3.340000e+02   4.403469e-08 
  3.360000e+02   5.306485e-08 
  3.380000e+02   5.929203e-08 
  3.400000e+02   5.565098e-08 
  3.420000e+02   5.029103e-08 
  3.440000e+02   4.559168e-08 
  3.460000e+02   4.465671e-08 
  3.480000e+02   4.478693e-08 
  3.500000e+02   4.078208e-08 
  3.520000e+02   3.965778e-08 
  3.540000e+02   4.347305e-08 
  3.560000e+02   6.559262e-08 
  3.580000e+02   1.497071e-07 
  3.600000e+02   2.085922e-07 
  3.620000e+02   1.501107e-07 
  3.640000e+02   6.979568e-08 
  3.660000e+02   4.750752e-08 
  3.680000e+02   4.885145e-08 
  3.700000e+02   5.032957e-08 
  3.720000e+02   5.241140e-08 
  3.740000e+02   4.581468e-08 
  3.760000e+02   4.582089e-08 
  3.780000e+02   5.063468e-08 
  3.800000e+02   4.539788e-08 
  3.820000e+02   4.317901e-08 
  3.840000e+02   4.601338e-08 
  3.860000e+02   4.509099e-08 
  3.880000e+02   4.207321e-08 
  3.900000e+02   4.325397e-08 
  3.920000e+02   4.548481e-08 
  3.940000e+02   4.828232e-08 
  3.960000e+02   5.666107e-08 
  3.980000e+02   5.616005e-08 
  4.000000e+02   4.767396e-08 
  4.020000e+02   4.663791e-08 
  4.040000e+02   4.817860e-08 
  4.060000e+02   5.126154e-08 
  4.080000e+02   5.346359e-08 
  4.100000e+02   5.395442e-08 
  4.120000e+02   5.096541e-08 
  4.140000e+02   9.382130e-08 
  4.160000e+02   9.572504e-07 
  4.180000e+02   3.197448e-06 
  4.200000e+02   4.575399e-06 
  4.220000e+02   3.034162e-06 
  4.240000e+02   8.488067e-07 
  4.260000e+02   7.787067e-08 
  4.280000e+02   4.422817e-08 
  4.300000e+02   4.826713e-08 
  4.320000e+02   4.580908e-08 
  4.340000e+02   4.608726e-08 
  4.360000e+02   5.802035e-08 
  4.380000e+02   5.753527e-08 
  4.400000e+02   4.582499e-08 
  4.420000e+02   3.753492e-08 
  4.440000e+02   4.144153e-08 
  4.460000e+02   5.449742e-08 
  4.480000e+02   5.467297e-08 
  4.500000e+02   4.242500e-08 
  4.520000e+02   4.103016e-08 
  4.540000e+02   4.821234e-08 
  4.560000e+02   4.932422e-08 
  4.580000e+02   4.865330e-08 
  4.600000e+02   4.596018e-08 
  4.620000e+02   4.252325e-08 
  4.640000e+02   4.815913e-08 
  4.660000e+02   5.176627e-08 
  4.680000e+02   5.176535e-08 
  4.700000e+02   4.840437e-08 
  4.720000e+02   4.248019e-08 
  4.740000e+02   4.078420e-08 
  4.760000e+02   5.660905e-08 
  4.780000e+02   1.337416e-07 
  4.800000e+02   1.954502e-07 
  4.820000e+02   1.398855e-07 
  4.840000e+02   6.718876e-08 
  4.860000e+02   5.944352e-08 
  4.880000e+02   5.558675e-08 
  4.900000e+02   5.174224e-08 
  4.920000e+02   5.042755e-08 
  4.940000e+02   4.534843e-08 
  4.960000e+02   4.468488e-08 
  4.980000e+02   4.320975e-08 
  5.000000e+02   4.251111e-08 
  5.020000e+02   4.614144e-08 
  5.040000e+02   5.283058e-08 
  5.060000e+02   5.121759e-08 
  5.080000e+02   4.131920e-08 
  5.100000e+02   4.760280e-08 
  5.120000e+02   5.617951e-08 
  5.140000e+02   5.030968e-08 
  5.160000e+02   4.636442e-08 
  5.180000e+02   4.905733e-08 
  5.200000e+02   4.794067e-08 
  5.220000e+02   4.594105e-08 
  5.240000e+02   4.818529e-08 
  5.260000e+02   5.635701e-08 
  5.280000e+02   5.624486e-08 
  5.300000e+02   4.930137e-08 
  5.320000e+02   4.596587e-08 
  5.340000e+02   7.399615e-08 
  5.360000e+02   6.949800e-07 
  5.380000e+02   2.297669e-06 
  5.400000e+02   3.268701e-06 
  5.420000e+02   2.156976e-06 
  5.440000e+02   6.047377e-07 
  5.460000e+02   7.353608e-08 
  5.480000e+02   4.720647e-08 
  5.500000e+02   4.208782e-08 
  5.520000e+02   4.646606e-08 
  5.540000e+02   5.011390e-08 
  5.560000e+02   4.804835e-08 
  5.580000e+02   5.020621e-08 
  5.600000e+02   5.396758e-08 
  5.620000e+02   5.026401e-08 
  5.640000e+02   4.585440e-08 
  5.660000e+02   5.201026e-08 
  5.680000e+02   5.686564e-08 
  5.700000e+02   5.484035e-08 
  5.720000e+02   4.976095e-08 
  5.740000e+02   4.453909e-08 
  5.760000e+02   4.641972e-08 
  5.780000e+02   4.947480e-08 
  5.800000e+02   4.698632e-08 
  5.820000e+02   4.910992e-08 
  5.840000e+02   4.944954e-08 
  5.860000e+02   4.989690e-08 
  5.880000e+02   4.952336e-08 
  5.900000e+02   4.905127e-08 
  5.920000e+02   4.792689e-08 
  5.940000e+02   4.338794e-08 
  5.960000e+02   5.595506e-08 
  5.980000e+02   1.239180e-07 
  6.000000e+02   1.723462e-07 
  6.020000e+02   1.279711e-07 
  6.040000e+02   6.622302e-08 
  6.060000e+02   4.607058e-08 
  6.080000e+02   4.296241e-08 
  6.100000e+02   4.686423e-08 
  6.120000e+02   5.113090e-08 
  6.140000e+02   5.038473e-08 
  6.160000e+02   4.830504e-08 
  6.180000e+02   5.025707e-08 
  6.200000e+02   5.459480e-08 
  6.220000e+02   5.809646e-08 
  6.240000e+02   5.403469e-08 
  6.260000e+02   4.610333e-08 
  6.280000e+02   5.097717e-08 
  6.300000e+02   5.181954e-08 
  6.320000e+02   4.935445e-08 
  6.340000e+02   5.049987e-08 
  6.360000e+02   5.307748e-08 
  6.380000e+02   5.609751e-08 
  6.400000e+02   5.763645e-08 
  6.420000e+02   5.938742e-08 
  6.440000e+02   5.789717e-08 
  6.460000e+02   5.381976e-08 
  6.480000e+02   5.723655e-08 
  6.500000e+02   7.290826e-08 
  6.520000e+02   6.652464e-08 
  6.540000e+02   8.456478e-08 
  6.560000e+02   6.591181e-07 
  6.580000e+02   2.160760e-06 
  6.600000e+02   3.052243e-06 
  6.620000e+02   1.995221e-06 
  6.640000e+02   5.504928e-07 
  6.660000e+02   6.391686e-08 
  6.680000e+02   4.916560e-08 
  6.700000e+02   4.600226e-08 
  6.720000e+02   4.840645e-08 
  6.740000e+02   5.272205e-08 
  6.760000e+02   5.235331e-08 
  6.780000e+02   4.608690e-08 
  6.800000e+02   4.047218e-08 
  6.820000e+02   5.490912e-08 
  6.840000e+02   6.983465e-08 
  6.860000e+02   6.960843e-08 
  6.880000e+02   6.037288e-08 
  6.900000e+02   4.929677e-08 
  6.920000e+02   5.307588e-08 
  6.940000e+02   5.590464e-08 
  6.960000e+02   5.213861e-08 
  6.980000e+02   5.179212e-08 
  7.000000e+02   5.007792e-08 
  7.020000e+02   4.582615e-08 
  7.040000e+02   4.566474e-08 
  7.060000e+02   5.133734e-08 
  7.080000e+02   5.488433e-08 
  7.100000e+02   5.632321e-08 
  7.120000e+02   5.758917e-08 
  7.140000e+02   5.588972e-08 
  7.160000e+02   5.409925e-08 
  7.180000e+02   9.505239e-08 
  7.200000e+02   1.274500e-07 
  7.220000e+02   8.810916e-08 
  7.240000e+02   5.130947e-08 
  7.260000e+02   5.304999e-08 
  7.280000e+02   5.520941e-08 
  7.300000e+02   5.551857e-08 
  7.320000e+02   5.168205e-08 
  7.340000e+02   4.638685e-08 
  7.360000e+02   4.261891e-08 
  7.380000e+02   4.584216e-08 
  7.400000e+02   5.200871e-08 
  7.420000e+02   5.346802e-08 
  7.440000e+02   5.046520e-08 
  7.460000e+02   4.876992e-08 
  7.480000e+02   5.432354e-08 
  7.500000e+02   7.000727e-08 
  7.520000e+02   9.241374e-08 
  7.540000e+02   8.711567e-08 
  7.560000e+02   6.852387e-08 
  7.580000e+02   6.955027e-08 
  7.600000e+02   5.923041e-08 
  7.620000e+02   5.914949e-08 
  7.640000e+02   6.053789e-08 
  7.660000e+02   6.256494e-08 
  7.680000e+02   1.154366e-07 
  7.700000e+02   1.831500e-07 
  7.720000e+02   1.514242e-07 
  7.740000e+02   7.966578e-08 
  7.760000e+02   4.088241e-07 
  7.780000e+02   1.359763e-06 
  7.800000e+02   1.924512e-06 
  7.820000e+02   1.253914e-06 
  7.840000e+02   3.353711e-07 
  7.860000e+02   5.470978e-08 
  7.880000e+02   6.643725e-08 
  7.900000e+02   6.691253e-08 
  7.920000e+02   6.115601e-08 
  7.940000e+02   5.988819e-08 
  7.960000e+02   6.322418e-08 
  7.980000e+02   6.844190e-08 
  8.000000e+02   6.538698e-08 
  8.020000e+02   5.995028e-08 
  8.040000e+02   5.087103e-08 
  8.060000e+02   4.904425e-08 
  8.080000e+02   5.433710e-08 
  8.100000e+02   6.120526e-08 
  8.120000e+02   6.026081e-08 
  8.140000e+02   5.268216e-08 
  8.160000e+02   5.667092e-08 
  8.180000e+02   6.300217e-08 
  8.200000e+02   5.927628e-08 
  8.220000e+02   5.457914e-08 
  8.240000e+02   5.318095e-08 
  8.260000e+02   6.526087e-08 
  8.280000e+02   7.477433e-08 
  8.300000e+02   6.587356e-08 
  8.320000e+02   5.803378e-08 
  8.340000e+02   6.171470e-08 
  8.360000e+02   6.545167e-08 
  8.380000e+02   8.235570e-08 
  8.400000e+02   9.397323e-08 
  8.420000e+02   7.215609e-08 
  8.440000e+02   5.868057e-08 
  8.460000e+02   5.454415e-08 
  8.480000e+02   5.394779e-08 
  8.500000e+02   5.420272e-08 
  8.520000e+02   4.863496e-08 
  8.540000e+02   5.023145e-08 
  8.560000e+02   5.687002e-08 
  8.580000e+02   5.680123e-08 
  8.600000e+02   5.063759e-08 
  8.620000e+02   5.139147e-08 
  8.640000e+02   5.283943e-08 
  8.660000e+02   5.015880e-08 
  8.680000e+02   4.619917e-08 
  8.700000e+02   5.132991e-08 
  8.720000e+02   8.398700e-08 
  8.740000e+02   1.044045e-07 
  8.760000e+02   9.661934e-08 
  8.780000e+02   9.184978e-08 
  8.800000e+02   7.665084e-08 
  8.820000e+02   6.105199e-08 
  8.840000e+02   5.202234e-08 
  8.860000e+02   5.341810e-08 
  8.880000e+02   6.280568e-08 
  8.900000e+02   7.386449e-08 
  8.920000e+02   6.677623e-08 
  8.940000e+02   5.042922e-08 
  8.960000e+02   2.367680e-07 
  8.980000e+02   7.469840e-07 
  9.000000e+02   1.028416e-06 
  9.020000e+02   6.590086e-07 
  9.040000e+02   1.855217e-07 
  9.060000e+02   5.579538e-08 
  9.080000e+02   6.377957e-08 
  9.100000e+02   7.250065e-08 
  9.120000e+02   6.656713e-08 
  9.140000e+02   4.740575e-08 
  9.160000e+02   4.007919e-08 
  9.180000e+02   5.059966e-08 
  9.200000e+02   5.269679e-08 
  9.220000e+02   4.851685e-08 
  9.240000e+02   4.463372e-08 
  9.260000e+02   5.550618e-08 
  9.280000e+02   6.196920e-08 
  9.300000e+02   5.290786e-08 
  9.320000e+02   5.133128e-08 
  9.340000e+02   5.412943e-08 
  9.360000e+02   5.014790e-08 
  9.380000e+02   4.810121e-08 
  9.400000e+02   5.229827e-08 
  9.420000e+02   5.260696e-08 
  9.440000e+02   5.260784e-08 
  9.460000e+02   5.814486e-08 
  9.480000e+02   5.689844e-08 
  9.500000e+02   5.869101e-08 
  9.520000e+02   5.531126e-08 
  9.540000e+02   4.612887e-08 
  9.560000e+02   4.649007e-08 
  9.580000e+02   5.195469e-08 
  9.600000e+02   5.659305e-08 
  9.620000e+02   5.979715e-08 
  9.640000e+02   5.718539e-08 
  9.660000e+02   5.029330e-08 
  9.680000e+02   4.778216e-08 
  9.700000e+02   5.231953e-08 
  9.720000e+02   6.065927e-08 
  9.740000e+02   6.473973e-08 
  9.760000e+02   6.275531e-08 
  9.780000e+02   6.039835e-08 
  9.800000e+02   6.356580e-08 
  9.820000e+02   6.963539e-08 
  9.840000e+02   6.930919e-08 
  9.860000e+02   6.222518e-08 
  9.880000e+02   6.117016e-08 
  9.900000e+02   6.504449e-08 
  9.920000e+02   6.286621e-08 
  9.940000e+02   6.111477e-08 
  9.960000e+02   6.758059e-08 
  9.980000e+02   7.142815e-08 
  1.000000e+03   6.722863e-08 
  1.002000e+03   6.159512e-08 
  1.004000e+03   5.732417e-08 
  1.006000e+03   5.896063e-08 
  1.008000e+03   8.097443e-08 
  1.010000e+03   1.051648e-07 
  1.012000e+03   8.923146e-08 
  1.014000e+03   6.315685e-08 
  1.016000e+03   6.919127e-08 
  1.018000e+03   7.331501e-08 
  1.020000e+03   7.041166e-08 
  1.022000e+03   6.178146e-08 
  1.024000e+03   5.845593e-08 
  1.026000e+03   6.530799e-08 
  1.028000e+03   6.390491e-08 
  1.030000e+03   5.696162e-08 
  1.032000e+03   5.461526e-08 
  1.034000e+03   6.128820e-08 
  1.036000e+03   5.697867e-08 
  1.038000e+03   5.926038e-08 
  1.040000e+03   7.162931e-08 
  1.042000e+03   7.769840e-08 
  1.044000e+03   7.237028e-08 
  1.046000e+03   6.595628e-08 
  1.048000e+03   6.303376e-08 
  1.050000e+03   5.992870e-08 
  1.052000e+03   5.575732e-08 
  1.054000e+03   4.997013e-08 
  1.056000e+03   4.891481e-08 
  1.058000e+03   5.249161e-08 
  1.060000e+03   5.355945e-08 
  1.062000e+03   5.292383e-08 
  1.064000e+03   5.320787e-08 
  1.066000e+03   6.223672e-08 
  1.068000e+03   6.296744e-08 
  1.070000e+03   5.652024e-08 
  1.072000e+03   5.851300e-08 
  1.074000e+03   6.429504e-08 
  1.076000e+03   6.885310e-08 
  1.078000e+03   9.890731e-08 
  1.080000e+03   1.215793e-07 
  1.082000e+03   9.643286e-08 
  1.084000e+03   6.773311e-08 
  1.086000e+03   6.005149e-08 
  1.088000e+03   5.620011e-08 
  1.090000e+03   5.400665e-08 
  1.092000e+03   6.200089e-08 
  1.094000e+03   7.154555e-08 
  1.096000e+03   7.121997e-08 
  1.098000e+03   7.711339e-08 
  1.100000e+03   9.552269e-08 
  1.102000e+03   9.749500e-08 
  1.104000e+03   7.927851e-08 
  1.106000e+03   7.289356e-08 
  1.108000e+03   7.804869e-08 
  1.110000e+03   7.272432e-08 
  1.112000e+03   7.477171e-08 
  1.114000e+03   7.816978e-08 
  1.116000e+03   8.090106e-08 
  1.118000e+03   8.563664e-08 
  1.120000e+03   8.233334e-08 
  1.122000e+03   6.888276e-08 
  1.124000e+03   5.831702e-08 
  1.126000e+03   5.704063e-08 
  1.128000e+03   6.249956e-08 
  1.130000e+03   6.438369e-08 
  1.132000e+03   6.566069e-08 
  1.134000e+03   7.445396e-08 
  1.136000e+03   1.785356e-07 
  1.138000e+03   4.903694e-07 
  1.140000e+03   6.601020e-07 
  1.142000e+03   4.182527e-07 
  1.144000e+03   1.229571e-07 
  1.146000e+03   5.394449e-08 
  1.148000e+03   5.650088e-08 
  1.150000e+03   6.357936e-08 
  1.152000e+03   6.294134e-08 
  1.154000e+03   6.160353e-08 
  1.156000e+03   6.102789e-08 
  1.158000e+03   5.592392e-08 
  1.160000e+03   6.440494e-08 
  1.162000e+03   6.205974e-08 
  1.164000e+03   5.304851e-08 
  1.166000e+03   4.894876e-08 
  1.168000e+03   6.061755e-08 
  1.170000e+03   6.317779e-08 
  1.172000e+03   5.748021e-08 
  1.174000e+03   6.396574e-08 
  1.176000e+03   6.783554e-08 
  1.178000e+03   5.754509e-08 
  1.180000e+03   5.622739e-08 
  1.182000e+03   5.938062e-08 
  1.184000e+03   6.765260e-08 
  1.186000e+03   7.221338e-08 
  1.188000e+03   6.665213e-08 
  1.190000e+03   5.896565e-08 
  1.192000e+03   5.645759e-08 
  1.194000e+03   5.796369e-08 
  1.196000e+03   6.724115e-08 
  1.198000e+03   9.463288e-08 
  1.200000e+03   1.115791e-07 
  1.202000e+03   8.340277e-08 
  1.204000e+03   5.609391e-08 
  1.206000e+03   5.617601e-08 
  1.208000e+03   5.883630e-08 
  1.210000e+03   6.142156e-08 
  1.212000e+03   6.909578e-08 
  1.214000e+03   7.538129e-08 
  1.216000e+03   6.629616e-08 
  1.218000e+03   5.692944e-08 
  1.220000e+03   5.548718e-08 
  1.222000e+03   5.396442e-08 
  1.224000e+03   5.041614e-08 
  1.226000e+03   5.320859e-08 
  1.228000e+03   5.483394e-08 
  1.230000e+03   6.007491e-08 
  1.232000e+03   5.994902e-08 
  1.234000e+03   5.938720e-08 
  1.236000e+03   7.326866e-08 
  1.238000e+03   8.738196e-08 
  1.240000e+03   8.624733e-08 
  1.242000e+03   7.580365e-08 
  1.244000e+03   6.600345e-08 
  1.246000e+03   6.342335e-08 
  1.248000e+03   5.793398e-08 
  1.250000e+03   6.053769e-08 
  1.252000e+03   6.447612e-08 
  1.254000e+03   6.174545e-08 
  1.256000e+03   1.509392e-07 
  1.258000e+03   4.695227e-07 
  1.260000e+03   6.362662e-07 
  1.262000e+03   3.949563e-07 
  1.264000e+03   1.120793e-07 
  1.266000e+03   6.028397e-08 
  1.268000e+03   5.826363e-08 
  1.270000e+03   6.119640e-08 
  1.272000e+03   6.739441e-08 
  1.274000e+03   7.359634e-08 
  1.276000e+03   7.588478e-08 
  1.278000e+03   7.615119e-08 
  1.280000e+03   7.398545e-08 
  1.282000e+03   6.438360e-08 
  1.284000e+03   5.996029e-08 
  1.286000e+03   6.510105e-08 
  1.288000e+03   6.792389e-08 
  1.290000e+03   6.349100e-08 
  1.292000e+03   5.936702e-08 
  1.294000e+03   6.716866e-08 
  1.296000e+03   6.558865e-08 
  1.298000e+03   5.614258e-08 
  1.300000e+03   5.698229e-08 
  1.302000e+03   6.046947e-08 
  1.304000e+03   6.378217e-08 
  1.306000e+03   6.426228e-08 
  1.308000e+03   6.411175e-08 
  1.310000e+03   6.356193e-08 
  1.312000e+03   5.564101e-08 
  1.314000e+03   5.487640e-08 
  1.316000e+03   5.667312e-08 
  1.318000e+03   8.421092e-08 
  1.320000e+03   1.056611e-07 
  1.322000e+03   8.156609e-08 
  1.324000e+03   6.860453e-08 
  1.326000e+03   6.632744e-08 
  1.328000e+03   5.669684e-08 
  1.330000e+03   6.346033e-08 
  1.332000e+03   7.623255e-08 
  1.334000e+03   8.191159e-08 
  1.336000e+03   8.377624e-08 
  1.338000e+03   7.016052e-08 
  1.340000e+03   4.638764e-08 
  1.342000e+03   4.677386e-08 
  1.344000e+03   6.094984e-08 
  1.346000e+03   6.495723e-08 
  1.348000e+03   6.406781e-08 
  1.350000e+03   6.507567e-08 
  1.352000e+03   6.552743e-08 
  1.354000e+03   6.517840e-08 
  1.356000e+03   6.175858e-08 
  1.358000e+03   6.220503e-08 
  1.360000e+03   6.413747e-08 
  1.362000e+03   6.339872e-08 
  1.364000e+03   6.702241e-08 
  1.366000e+03   6.904417e-08 
  1.368000e+03   6.443237e-08 
  1.370000e+03   6.431542e-08 
  1.372000e+03   6.633964e-08 
  1.374000e+03   6.812468e-08 
  1.376000e+03   1.245111e-07 
  1.378000e+03   3.210148e-07 
  1.380000e+03   4.286930e-07 
  1.382000e+03   2.742092e-07 
  1.384000e+03   9.839845e-08 
  1.386000e+03   7.434558e-08 
  1.388000e+03   8.502018e-08 
  1.390000e+03   7.742153e-08 
  1.392000e+03   6.446708e-08 
  1.394000e+03   6.507414e-08 
  1.396000e+03   6.617400e-08 
  1.398000e+03   6.325766e-08 
  1.400000e+03   6.295557e-08 
  1.402000e+03   6.358643e-08 
  1.404000e+03   6.849610e-08 
  1.406000e+03   7.734239e-08 
  1.408000e+03   7.264381e-08 
  1.410000e+03   5.579542e-08 
  1.412000e+03   5.957370e-08 
  1.414000e+03   6.954736e-08 
  1.416000e+03   7.511488e-08 
  1.418000e+03   8.106377e-08 
  1.420000e+03   7.005359e-08 
  1.422000e+03   6.043825e-08 
  1.424000e+03   6.361174e-08 
  1.426000e+03   7.025651e-08 
  1.428000e+03   7.492869e-08 
  1.430000e+03   7.771717e-08 
  1.432000e+03   7.838687e-08 
  1.434000e+03   6.936888e-08 
  1.436000e+03   6.378722e-08 
  1.438000e+03   6.881070e-08 
  1.440000e+03   8.196078e-08 
  1.442000e+03   7.781701e-08 
  1.444000e+03   6.868174e-08 
  1.446000e+03   6.835916e-08 
  1.448000e+03   6.328677e-08 
  1.450000e+03   6.173480e-08 
  1.452000e+03   6.100554e-08 
  1.454000e+03   6.103716e-08 
  1.456000e+03   5.949385e-08 
  1.458000e+03   5.485930e-08 
  1.460000e+03   7.226602e-08 
  1.462000e+03   8.844373e-08 
  1.464000e+03   8.407478e-08 
  1.466000e+03   6.641073e-08 
  1.468000e+03   5.361781e-08 
  1.470000e+03   5.971138e-08 
  1.472000e+03   7.294722e-08 
  1.474000e+03   7.604801e-08 
  1.476000e+03   7.081161e-08 
  1.478000e+03   7.282633e-08 
  1.480000e+03   8.565056e-08 
  1.482000e+03   8.447162e-08 
  1.484000e+03   6.879026e-08 
  1.486000e+03   6.849296e-08 
  1.488000e+03   6.215127e-08 
  1.490000e+03   6.563145e-08 
  1.492000e+03   8.417181e-08 
  1.494000e+03   7.555824e-08 
  1.496000e+03   1.358388e-07 
  1.498000e+03   3.891676e-07 
  1.500000e+03   5.263906e-07 
  1.502000e+03   3.356932e-07 
  1.504000e+03   1.228902e-07 
  1.506000e+03   7.468608e-08 
  1.508000e+03   6.138657e-08 
  1.510000e+03   5.904927e-08 
  1.512000e+03   5.699498e-08 
  1.514000e+03   6.305479e-08 
  1.516000e+03   6.149943e-08 
  1.518000e+03   6.981774e-08 
  1.520000e+03   7.366559e-08 
  1.522000e+03   6.982329e-08 
  1.524000e+03   6.296875e-08 
  1.526000e+03   6.000615e-08 
  1.528000e+03   6.498728e-08 
  1.530000e+03   6.361885e-08 
  1.532000e+03   6.148699e-08 
  1.534000e+03   6.485352e-08 
  1.536000e+03   7.724003e-08 
  1.538000e+03   8.004197e-08 
  1.540000e+03   8.205621e-08 
  1.542000e+03   8.202209e-08 
  1.544000e+03   6.642369e-08 
  1.546000e+03   5.440095e-08 
  1.548000e+03   6.502425e-08 
  1.550000e+03   7.131965e-08 
  1.552000e+03   7.065561e-08 
  1.554000e+03   7.506323e-08 
  1.556000e+03   7.413960e-08 
  1.558000e+03   6.262178e-08 
  1.560000e+03   6.227250e-08 
  1.562000e+03   7.892918e-08 
  1.564000e+03   8.682458e-08 
  1.566000e+03   8.243300e-08 
  1.568000e+03   7.984206e-08 
  1.570000e+03   7.758239e-08 
  1.572000e+03   7.668148e-08 
  1.574000e+03   7.634198e-08 
  1.576000e+03   6.936968e-08 
  1.578000e+03   6.092493e-08 
  1.580000e+03   6.316518e-08 
  1.582000e+03   7.331311e-08 
  1.584000e+03   8.028059e-08 
  1.586000e+03   7.609501e-08 
  1.588000e+03   7.286884e-08 
  1.590000e+03   7.942862e-08 
  1.592000e+03   8.069416e-08 
  1.594000e+03   7.503626e-08 
  1.596000e+03   7.460748e-08 
  1.598000e+03   7.524685e-08 
  1.600000e+03   6.127249e-08 
