Input File: 02NSOUT.78D
Measure Group: FFT
Measurement: FFT 1
Num of extracted Points: 801
Start Freq: -0 Hz
Span: 1.6 kHz
FFT Lines:  800 
Window: Hanning
Averaging Mode: RMS
Averaging Type: Linear / Fix Len
Number of Avg:  100
Overload reject: On

    X[Hz]      Vrms/Hz^(1/... 
  0.000000e+00   5.347602e-01 
  2.000000e+00   2.677979e-01 
  4.000000e+00   1.091040e-02 
  6.000000e+00   9.041348e-03 
  8.000000e+00   8.770760e-03 
  1.000000e+01   8.388531e-03 
  1.200000e+01   8.844646e-03 
  1.400000e+01   1.080118e-02 
  1.600000e+01   9.966258e-03 
  1.800000e+01   7.765197e-03 
  2.000000e+01   5.310178e-03 
  2.200000e+01   3.774399e-03 
  2.400000e+01   3.239295e-03 
  2.600000e+01   2.767485e-03 
  2.800000e+01   3.047925e-03 
  3.000000e+01   3.825979e-03 
  3.200000e+01   2.760109e-03 
  3.400000e+01   3.344882e-03 
  3.600000e+01   3.541207e-03 
  3.800000e+01   2.450749e-03 
  4.000000e+01   2.332161e-03 
  4.200000e+01   2.291740e-03 
  4.400000e+01   2.313127e-03 
  4.600000e+01   2.226726e-03 
  4.800000e+01   2.476019e-03 
  5.000000e+01   2.376538e-03 
  5.200000e+01   2.258782e-03 
  5.400000e+01   2.362312e-03 
  5.600000e+01   3.265100e-03 
  5.800000e+01   3.863596e-03 
  6.000000e+01   5.207522e-03 
  6.200000e+01   3.887516e-03 
  6.400000e+01   3.324951e-03 
  6.600000e+01   3.216007e-03 
  6.800000e+01   2.473682e-03 
  7.000000e+01   2.424038e-03 
  7.200000e+01   2.769850e-03 
  7.400000e+01   3.235717e-03 
  7.600000e+01   3.532399e-03 
  7.800000e+01   3.686465e-03 
  8.000000e+01   3.511400e-03 
  8.200000e+01   3.408751e-03 
  8.400000e+01   3.461724e-03 
  8.600000e+01   3.226025e-03 
  8.800000e+01   2.771061e-03 
  9.000000e+01   2.624589e-03 
  9.200000e+01   2.805925e-03 
  9.400000e+01   2.800219e-03 
  9.600000e+01   2.621699e-03 
  9.800000e+01   2.578334e-03 
  1.000000e+02   2.774210e-03 
  1.020000e+02   2.471147e-03 
  1.040000e+02   2.167300e-03 
  1.060000e+02   2.236653e-03 
  1.080000e+02   1.982631e-03 
  1.100000e+02   1.718009e-03 
  1.120000e+02   1.947604e-03 
  1.140000e+02   2.178379e-03 
  1.160000e+02   2.895828e-03 
  1.180000e+02   7.257115e-03 
  1.200000e+02   1.356282e-02 
  1.220000e+02   7.317711e-03 
  1.240000e+02   1.740454e-03 
  1.260000e+02   1.555349e-03 
  1.280000e+02   1.431340e-03 
  1.300000e+02   1.195294e-03 
  1.320000e+02   1.316045e-03 
  1.340000e+02   1.545390e-03 
  1.360000e+02   1.419349e-03 
  1.380000e+02   1.220053e-03 
  1.400000e+02   1.154807e-03 
  1.420000e+02   1.177327e-03 
  1.440000e+02   1.174031e-03 
  1.460000e+02   1.065838e-03 
  1.480000e+02   1.029006e-03 
  1.500000e+02   9.851129e-04 
  1.520000e+02   8.159209e-04 
  1.540000e+02   1.026326e-03 
  1.560000e+02   1.013554e-03 
  1.580000e+02   8.158837e-04 
  1.600000e+02   7.994872e-04 
  1.620000e+02   7.478535e-04 
  1.640000e+02   7.315071e-04 
  1.660000e+02   6.677289e-04 
  1.680000e+02   6.998312e-04 
  1.700000e+02   6.486454e-04 
  1.720000e+02   5.842748e-04 
  1.740000e+02   7.503384e-04 
  1.760000e+02   8.707399e-04 
  1.780000e+02   9.769663e-04 
  1.800000e+02   1.336436e-03 
  1.820000e+02   1.022542e-03 
  1.840000e+02   8.669801e-04 
  1.860000e+02   6.779341e-04 
  1.880000e+02   5.569508e-04 
  1.900000e+02   6.182516e-04 
  1.920000e+02   6.842411e-04 
  1.940000e+02   6.772462e-04 
  1.960000e+02   6.761407e-04 
  1.980000e+02   7.692793e-04 
  2.000000e+02   9.033563e-04 
  2.020000e+02   8.528472e-04 
  2.040000e+02   7.769512e-04 
  2.060000e+02   7.572496e-04 
  2.080000e+02   7.910616e-04 
  2.100000e+02   8.366634e-04 
  2.120000e+02   7.793452e-04 
  2.140000e+02   7.497701e-04 
  2.160000e+02   6.803692e-04 
  2.180000e+02   6.764081e-04 
  2.200000e+02   7.077200e-04 
  2.220000e+02   8.425292e-04 
  2.240000e+02   1.149274e-03 
  2.260000e+02   1.257842e-03 
  2.280000e+02   1.011765e-03 
  2.300000e+02   7.784868e-04 
  2.320000e+02   6.681788e-04 
  2.340000e+02   5.971059e-04 
  2.360000e+02   7.626490e-04 
  2.380000e+02   6.781423e-03 
  2.400000e+02   1.327794e-02 
  2.420000e+02   6.896258e-03 
  2.440000e+02   6.802184e-04 
  2.460000e+02   5.634356e-04 
  2.480000e+02   6.374441e-04 
  2.500000e+02   7.912368e-04 
  2.520000e+02   1.009205e-03 
  2.540000e+02   1.206152e-03 
  2.560000e+02   1.090152e-03 
  2.580000e+02   8.300631e-04 
  2.600000e+02   5.931252e-04 
  2.620000e+02   4.707122e-04 
  2.640000e+02   4.526017e-04 
  2.660000e+02   5.028978e-04 
  2.680000e+02   5.741466e-04 
  2.700000e+02   6.178832e-04 
  2.720000e+02   5.018354e-04 
  2.740000e+02   5.642636e-04 
  2.760000e+02   5.792916e-04 
  2.780000e+02   5.246505e-04 
  2.800000e+02   4.769509e-04 
  2.820000e+02   4.779565e-04 
  2.840000e+02   4.801357e-04 
  2.860000e+02   5.189530e-04 
  2.880000e+02   5.330865e-04 
  2.900000e+02   4.578338e-04 
  2.920000e+02   4.551173e-04 
  2.940000e+02   4.796952e-04 
  2.960000e+02   5.773117e-04 
  2.980000e+02   6.265429e-04 
  3.000000e+02   8.032531e-04 
  3.020000e+02   6.457021e-04 
  3.040000e+02   6.015653e-04 
  3.060000e+02   5.864269e-04 
  3.080000e+02   4.927794e-04 
  3.100000e+02   5.257359e-04 
  3.120000e+02   5.807400e-04 
  3.140000e+02   5.562367e-04 
  3.160000e+02   5.641259e-04 
  3.180000e+02   5.451408e-04 
  3.200000e+02   5.316203e-04 
  3.220000e+02   5.239064e-04 
  3.240000e+02   5.080405e-04 
  3.260000e+02   5.092804e-04 
  3.280000e+02   5.249975e-04 
  3.300000e+02   5.067968e-04 
  3.320000e+02   5.230467e-04 
  3.340000e+02   5.382191e-04 
  3.360000e+02   5.005276e-04 
  3.380000e+02   4.820592e-04 
  3.400000e+02   5.272657e-04 
  3.420000e+02   5.334386e-04 
  3.440000e+02   4.989445e-04 
  3.460000e+02   5.093770e-04 
  3.480000e+02   5.109861e-04 
  3.500000e+02   4.820780e-04 
  3.520000e+02   4.838691e-04 
  3.540000e+02   4.928052e-04 
  3.560000e+02   5.192617e-04 
  3.580000e+02   1.053972e-03 
  3.600000e+02   1.978654e-03 
  3.620000e+02   1.113874e-03 
  3.640000e+02   5.008139e-04 
  3.660000e+02   4.588176e-04 
  3.680000e+02   4.820560e-04 
  3.700000e+02   4.512867e-04 
  3.720000e+02   4.720402e-04 
  3.740000e+02   5.291757e-04 
  3.760000e+02   4.894493e-04 
  3.780000e+02   4.631499e-04 
  3.800000e+02   4.897597e-04 
  3.820000e+02   4.679505e-04 
  3.840000e+02   4.843617e-04 
  3.860000e+02   4.749653e-04 
  3.880000e+02   4.969357e-04 
  3.900000e+02   4.959476e-04 
  3.920000e+02   4.539269e-04 
  3.940000e+02   4.462773e-04 
  3.960000e+02   4.374572e-04 
  3.980000e+02   4.230036e-04 
  4.000000e+02   4.271702e-04 
  4.020000e+02   4.437019e-04 
  4.040000e+02   4.570892e-04 
  4.060000e+02   4.521778e-04 
  4.080000e+02   4.320971e-04 
  4.100000e+02   4.241653e-04 
  4.120000e+02   4.194658e-04 
  4.140000e+02   4.080780e-04 
  4.160000e+02   4.137678e-04 
  4.180000e+02   5.208421e-04 
  4.200000e+02   7.258756e-04 
  4.220000e+02   5.136502e-04 
  4.240000e+02   3.978534e-04 
  4.260000e+02   4.082649e-04 
  4.280000e+02   4.016836e-04 
  4.300000e+02   4.120675e-04 
  4.320000e+02   4.120847e-04 
  4.340000e+02   3.827772e-04 
  4.360000e+02   4.218595e-04 
  4.380000e+02   4.516648e-04 
  4.400000e+02   4.191025e-04 
  4.420000e+02   3.981937e-04 
  4.440000e+02   4.022498e-04 
  4.460000e+02   4.212635e-04 
  4.480000e+02   4.072624e-04 
  4.500000e+02   4.247101e-04 
  4.520000e+02   3.973071e-04 
  4.540000e+02   3.995047e-04 
  4.560000e+02   4.080697e-04 
  4.580000e+02   4.361621e-04 
  4.600000e+02   4.291661e-04 
  4.620000e+02   4.338695e-04 
  4.640000e+02   4.082812e-04 
  4.660000e+02   3.761525e-04 
  4.680000e+02   3.726388e-04 
  4.700000e+02   4.184146e-04 
  4.720000e+02   4.368188e-04 
  4.740000e+02   4.318889e-04 
  4.760000e+02   4.083160e-04 
  4.780000e+02   5.183295e-04 
  4.800000e+02   7.156557e-04 
  4.820000e+02   4.808742e-04 
  4.840000e+02   4.100841e-04 
  4.860000e+02   4.286003e-04 
  4.880000e+02   4.447953e-04 
  4.900000e+02   4.314324e-04 
  4.920000e+02   4.133291e-04 
  4.940000e+02   4.131423e-04 
  4.960000e+02   4.282965e-04 
  4.980000e+02   3.971384e-04 
  5.000000e+02   3.940398e-04 
  5.020000e+02   3.971302e-04 
  5.040000e+02   4.234330e-04 
  5.060000e+02   4.530306e-04 
  5.080000e+02   4.588198e-04 
  5.100000e+02   4.333550e-04 
  5.120000e+02   4.278239e-04 
  5.140000e+02   3.984029e-04 
  5.160000e+02   3.889973e-04 
  5.180000e+02   3.879770e-04 
  5.200000e+02   4.016472e-04 
  5.220000e+02   4.087026e-04 
  5.240000e+02   4.017857e-04 
  5.260000e+02   4.009945e-04 
  5.280000e+02   3.995236e-04 
  5.300000e+02   4.069125e-04 
  5.320000e+02   3.881619e-04 
  5.340000e+02   4.142961e-04 
  5.360000e+02   3.955875e-04 
  5.380000e+02   4.068772e-04 
  5.400000e+02   4.489398e-04 
  5.420000e+02   4.128581e-04 
  5.440000e+02   4.235976e-04 
  5.460000e+02   4.190335e-04 
  5.480000e+02   4.341332e-04 
  5.500000e+02   4.398997e-04 
  5.520000e+02   4.028717e-04 
  5.540000e+02   4.074960e-04 
  5.560000e+02   3.687344e-04 
  5.580000e+02   3.700775e-04 
  5.600000e+02   4.015341e-04 
  5.620000e+02   3.921617e-04 
  5.640000e+02   3.790944e-04 
  5.660000e+02   3.829215e-04 
  5.680000e+02   3.719175e-04 
  5.700000e+02   3.932285e-04 
  5.720000e+02   4.252126e-04 
  5.740000e+02   4.226647e-04 
  5.760000e+02   4.280446e-04 
  5.780000e+02   4.316339e-04 
  5.800000e+02   4.089349e-04 
  5.820000e+02   3.799988e-04 
  5.840000e+02   3.662881e-04 
  5.860000e+02   3.863572e-04 
  5.880000e+02   3.956444e-04 
  5.900000e+02   3.893402e-04 
  5.920000e+02   4.025363e-04 
  5.940000e+02   3.929947e-04 
  5.960000e+02   3.529215e-04 
  5.980000e+02   3.765054e-04 
  6.000000e+02   4.617415e-04 
  6.020000e+02   4.249827e-04 
  6.040000e+02   4.128740e-04 
  6.060000e+02   4.260598e-04 
  6.080000e+02   4.228370e-04 
  6.100000e+02   4.012622e-04 
  6.120000e+02   3.518365e-04 
  6.140000e+02   3.664859e-04 
  6.160000e+02   3.668920e-04 
  6.180000e+02   4.089679e-04 
  6.200000e+02   4.338270e-04 
  6.220000e+02   4.520363e-04 
  6.240000e+02   4.165185e-04 
  6.260000e+02   3.722739e-04 
  6.280000e+02   4.081994e-04 
  6.300000e+02   3.729562e-04 
  6.320000e+02   3.990646e-04 
  6.340000e+02   3.880051e-04 
  6.360000e+02   4.142234e-04 
  6.380000e+02   4.240157e-04 
  6.400000e+02   4.169788e-04 
  6.420000e+02   3.988211e-04 
  6.440000e+02   4.257686e-04 
  6.460000e+02   4.279451e-04 
  6.480000e+02   4.145443e-04 
  6.500000e+02   3.860214e-04 
  6.520000e+02   3.935109e-04 
  6.540000e+02   4.036325e-04 
  6.560000e+02   3.819935e-04 
  6.580000e+02   3.621722e-04 
  6.600000e+02   3.935405e-04 
  6.620000e+02   3.849090e-04 
  6.640000e+02   3.749308e-04 
  6.660000e+02   3.777293e-04 
  6.680000e+02   3.963206e-04 
  6.700000e+02   4.066533e-04 
  6.720000e+02   4.298001e-04 
  6.740000e+02   4.457144e-04 
  6.760000e+02   4.094162e-04 
  6.780000e+02   3.906500e-04 
  6.800000e+02   4.022873e-04 
  6.820000e+02   3.935620e-04 
  6.840000e+02   3.984867e-04 
  6.860000e+02   3.933691e-04 
  6.880000e+02   4.006463e-04 
  6.900000e+02   4.075983e-04 
  6.920000e+02   3.854093e-04 
  6.940000e+02   3.585345e-04 
  6.960000e+02   3.894426e-04 
  6.980000e+02   3.885934e-04 
  7.000000e+02   3.983651e-04 
  7.020000e+02   4.001537e-04 
  7.040000e+02   4.076641e-04 
  7.060000e+02   4.050857e-04 
  7.080000e+02   3.994743e-04 
  7.100000e+02   3.855330e-04 
  7.120000e+02   3.747058e-04 
  7.140000e+02   3.830198e-04 
  7.160000e+02   3.761861e-04 
  7.180000e+02   3.937870e-04 
  7.200000e+02   4.188241e-04 
  7.220000e+02   3.977877e-04 
  7.240000e+02   4.312666e-04 
  7.260000e+02   4.254414e-04 
  7.280000e+02   4.208089e-04 
  7.300000e+02   3.919587e-04 
  7.320000e+02   3.629330e-04 
  7.340000e+02   4.061794e-04 
  7.360000e+02   3.985546e-04 
  7.380000e+02   3.680227e-04 
  7.400000e+02   3.697932e-04 
  7.420000e+02   4.001812e-04 
  7.440000e+02   3.925370e-04 
  7.460000e+02   3.987403e-04 
  7.480000e+02   3.771161e-04 
  7.500000e+02   3.934374e-04 
  7.520000e+02   3.870603e-04 
  7.540000e+02   3.795600e-04 
  7.560000e+02   4.259182e-04 
  7.580000e+02   4.051320e-04 
  7.600000e+02   3.896611e-04 
  7.620000e+02   3.903491e-04 
  7.640000e+02   3.982614e-04 
  7.660000e+02   3.816441e-04 
  7.680000e+02   3.675655e-04 
  7.700000e+02   3.725853e-04 
  7.720000e+02   3.939297e-04 
  7.740000e+02   4.168944e-04 
  7.760000e+02   4.057515e-04 
  7.780000e+02   3.989185e-04 
  7.800000e+02   4.208830e-04 
  7.820000e+02   4.140947e-04 
  7.840000e+02   4.044107e-04 
  7.860000e+02   3.908810e-04 
  7.880000e+02   4.074460e-04 
  7.900000e+02   4.043179e-04 
  7.920000e+02   3.809067e-04 
  7.940000e+02   3.660129e-04 
  7.960000e+02   3.951073e-04 
  7.980000e+02   4.085480e-04 
  8.000000e+02   3.954166e-04 
  8.020000e+02   3.871411e-04 
  8.040000e+02   3.971192e-04 
  8.060000e+02   3.902358e-04 
  8.080000e+02   4.067185e-04 
  8.100000e+02   3.747146e-04 
  8.120000e+02   4.088858e-04 
  8.140000e+02   3.881524e-04 
  8.160000e+02   3.949943e-04 
  8.180000e+02   3.655351e-04 
  8.200000e+02   3.818337e-04 
  8.220000e+02   4.076153e-04 
  8.240000e+02   3.749619e-04 
  8.260000e+02   3.863268e-04 
  8.280000e+02   3.835880e-04 
  8.300000e+02   3.910131e-04 
  8.320000e+02   3.963309e-04 
  8.340000e+02   4.172709e-04 
  8.360000e+02   3.998373e-04 
  8.380000e+02   3.717236e-04 
  8.400000e+02   3.675776e-04 
  8.420000e+02   3.730927e-04 
  8.440000e+02   3.696673e-04 
  8.460000e+02   3.704563e-04 
  8.480000e+02   3.748059e-04 
  8.500000e+02   3.717612e-04 
  8.520000e+02   3.883635e-04 
  8.540000e+02   3.930701e-04 
  8.560000e+02   3.966794e-04 
  8.580000e+02   3.892726e-04 
  8.600000e+02   3.905571e-04 
  8.620000e+02   3.997307e-04 
  8.640000e+02   3.691474e-04 
  8.660000e+02   4.003463e-04 
  8.680000e+02   3.950317e-04 
  8.700000e+02   3.866201e-04 
  8.720000e+02   3.790110e-04 
  8.740000e+02   3.890937e-04 
  8.760000e+02   4.003970e-04 
  8.780000e+02   3.869696e-04 
  8.800000e+02   3.857571e-04 
  8.820000e+02   4.106893e-04 
  8.840000e+02   4.110625e-04 
  8.860000e+02   3.770688e-04 
  8.880000e+02   3.937672e-04 
  8.900000e+02   4.024832e-04 
  8.920000e+02   3.907205e-04 
  8.940000e+02   3.817149e-04 
  8.960000e+02   3.797853e-04 
  8.980000e+02   3.737276e-04 
  9.000000e+02   3.664307e-04 
  9.020000e+02   3.869394e-04 
  9.040000e+02   3.549357e-04 
  9.060000e+02   3.694097e-04 
  9.080000e+02   3.807304e-04 
  9.100000e+02   4.156633e-04 
  9.120000e+02   4.063357e-04 
  9.140000e+02   4.084243e-04 
  9.160000e+02   4.161979e-04 
  9.180000e+02   3.972192e-04 
  9.200000e+02   3.874530e-04 
  9.220000e+02   3.917599e-04 
  9.240000e+02   4.281480e-04 
  9.260000e+02   4.208489e-04 
  9.280000e+02   4.194680e-04 
  9.300000e+02   4.053223e-04 
  9.320000e+02   3.945743e-04 
  9.340000e+02   3.905241e-04 
  9.360000e+02   3.758928e-04 
  9.380000e+02   3.981452e-04 
  9.400000e+02   3.885943e-04 
  9.420000e+02   4.142386e-04 
  9.440000e+02   4.240385e-04 
  9.460000e+02   3.988715e-04 
  9.480000e+02   4.048605e-04 
  9.500000e+02   3.998643e-04 
  9.520000e+02   3.838601e-04 
  9.540000e+02   3.898365e-04 
  9.560000e+02   3.954406e-04 
  9.580000e+02   3.847867e-04 
  9.600000e+02   4.040640e-04 
  9.620000e+02   4.346717e-04 
  9.640000e+02   4.315659e-04 
  9.660000e+02   3.921062e-04 
  9.680000e+02   4.125809e-04 
  9.700000e+02   3.666619e-04 
  9.720000e+02   3.324675e-04 
  9.740000e+02   3.496374e-04 
  9.760000e+02   3.790638e-04 
  9.780000e+02   4.069769e-04 
  9.800000e+02   3.942016e-04 
  9.820000e+02   3.963154e-04 
  9.840000e+02   3.543439e-04 
  9.860000e+02   4.006804e-04 
  9.880000e+02   3.557212e-04 
  9.900000e+02   3.905584e-04 
  9.920000e+02   4.266052e-04 
  9.940000e+02   4.244673e-04 
  9.960000e+02   3.845354e-04 
  9.980000e+02   4.223094e-04 
  1.000000e+03   3.835713e-04 
  1.002000e+03   3.365178e-04 
  1.004000e+03   3.686563e-04 
  1.006000e+03   3.714110e-04 
  1.008000e+03   3.633611e-04 
  1.010000e+03   3.567708e-04 
  1.012000e+03   3.748324e-04 
  1.014000e+03   3.804289e-04 
  1.016000e+03   3.951916e-04 
  1.018000e+03   3.946357e-04 
  1.020000e+03   4.108566e-04 
  1.022000e+03   4.437355e-04 
  1.024000e+03   3.906260e-04 
  1.026000e+03   4.306306e-04 
  1.028000e+03   3.981570e-04 
  1.030000e+03   3.800626e-04 
  1.032000e+03   3.874115e-04 
  1.034000e+03   4.121329e-04 
  1.036000e+03   4.187505e-04 
  1.038000e+03   4.198659e-04 
  1.040000e+03   3.715563e-04 
  1.042000e+03   3.858345e-04 
  1.044000e+03   4.137547e-04 
  1.046000e+03   4.013586e-04 
  1.048000e+03   3.464317e-04 
  1.050000e+03   3.890888e-04 
  1.052000e+03   4.237438e-04 
  1.054000e+03   3.891449e-04 
  1.056000e+03   3.734148e-04 
  1.058000e+03   3.644121e-04 
  1.060000e+03   4.138155e-04 
  1.062000e+03   3.937226e-04 
  1.064000e+03   3.990910e-04 
  1.066000e+03   3.958933e-04 
  1.068000e+03   4.242733e-04 
  1.070000e+03   4.349233e-04 
  1.072000e+03   3.745201e-04 
  1.074000e+03   3.535164e-04 
  1.076000e+03   3.776272e-04 
  1.078000e+03   4.076220e-04 
  1.080000e+03   4.235160e-04 
  1.082000e+03   4.085339e-04 
  1.084000e+03   3.684365e-04 
  1.086000e+03   3.928249e-04 
  1.088000e+03   4.154528e-04 
  1.090000e+03   4.299855e-04 
  1.092000e+03   4.205459e-04 
  1.094000e+03   4.244822e-04 
  1.096000e+03   4.597890e-04 
  1.098000e+03   5.263719e-04 
  1.100000e+03   5.454696e-04 
  1.102000e+03   5.516327e-04 
  1.104000e+03   5.076457e-04 
  1.106000e+03   5.480745e-04 
  1.108000e+03   5.348887e-04 
  1.110000e+03   5.377087e-04 
  1.112000e+03   4.617154e-04 
  1.114000e+03   4.339512e-04 
  1.116000e+03   4.375186e-04 
  1.118000e+03   4.563761e-04 
  1.120000e+03   4.812147e-04 
  1.122000e+03   4.409934e-04 
  1.124000e+03   4.441011e-04 
  1.126000e+03   4.336139e-04 
  1.128000e+03   4.136838e-04 
  1.130000e+03   4.283077e-04 
  1.132000e+03   4.129142e-04 
  1.134000e+03   4.366985e-04 
  1.136000e+03   4.010689e-04 
  1.138000e+03   3.952095e-04 
  1.140000e+03   4.257316e-04 
  1.142000e+03   4.119298e-04 
  1.144000e+03   4.068716e-04 
  1.146000e+03   4.104837e-04 
  1.148000e+03   3.932196e-04 
  1.150000e+03   3.838422e-04 
  1.152000e+03   3.890893e-04 
  1.154000e+03   3.843391e-04 
  1.156000e+03   3.934613e-04 
  1.158000e+03   4.244973e-04 
  1.160000e+03   4.232725e-04 
  1.162000e+03   3.764117e-04 
  1.164000e+03   3.989730e-04 
  1.166000e+03   3.997923e-04 
  1.168000e+03   3.842927e-04 
  1.170000e+03   3.930278e-04 
  1.172000e+03   3.799064e-04 
  1.174000e+03   3.666067e-04 
  1.176000e+03   3.631808e-04 
  1.178000e+03   4.137461e-04 
  1.180000e+03   4.083625e-04 
  1.182000e+03   4.098751e-04 
  1.184000e+03   3.923234e-04 
  1.186000e+03   3.960615e-04 
  1.188000e+03   4.055962e-04 
  1.190000e+03   3.887689e-04 
  1.192000e+03   3.590719e-04 
  1.194000e+03   4.049739e-04 
  1.196000e+03   4.279389e-04 
  1.198000e+03   3.778703e-04 
  1.200000e+03   3.588751e-04 
  1.202000e+03   3.678999e-04 
  1.204000e+03   3.719251e-04 
  1.206000e+03   4.290894e-04 
  1.208000e+03   4.205144e-04 
  1.210000e+03   4.113102e-04 
  1.212000e+03   4.090657e-04 
  1.214000e+03   3.708877e-04 
  1.216000e+03   3.801893e-04 
  1.218000e+03   3.908303e-04 
  1.220000e+03   3.778727e-04 
  1.222000e+03   3.855769e-04 
  1.224000e+03   3.892956e-04 
  1.226000e+03   3.842982e-04 
  1.228000e+03   4.248615e-04 
  1.230000e+03   4.064622e-04 
  1.232000e+03   3.839237e-04 
  1.234000e+03   3.651044e-04 
  1.236000e+03   3.584425e-04 
  1.238000e+03   3.787655e-04 
  1.240000e+03   3.911192e-04 
  1.242000e+03   3.745780e-04 
  1.244000e+03   4.001399e-04 
  1.246000e+03   3.856641e-04 
  1.248000e+03   3.830071e-04 
  1.250000e+03   3.894782e-04 
  1.252000e+03   3.882872e-04 
  1.254000e+03   3.629652e-04 
  1.256000e+03   3.706636e-04 
  1.258000e+03   4.007090e-04 
  1.260000e+03   4.022587e-04 
  1.262000e+03   3.950411e-04 
  1.264000e+03   4.002343e-04 
  1.266000e+03   3.727917e-04 
  1.268000e+03   3.796352e-04 
  1.270000e+03   3.967216e-04 
  1.272000e+03   4.209709e-04 
  1.274000e+03   3.678398e-04 
  1.276000e+03   4.022995e-04 
  1.278000e+03   4.164261e-04 
  1.280000e+03   4.015517e-04 
  1.282000e+03   3.855122e-04 
  1.284000e+03   3.574300e-04 
  1.286000e+03   3.714939e-04 
  1.288000e+03   4.175515e-04 
  1.290000e+03   3.683345e-04 
  1.292000e+03   3.560149e-04 
  1.294000e+03   3.798651e-04 
  1.296000e+03   3.524506e-04 
  1.298000e+03   3.661338e-04 
  1.300000e+03   3.867385e-04 
  1.302000e+03   3.864848e-04 
  1.304000e+03   3.861786e-04 
  1.306000e+03   3.912045e-04 
  1.308000e+03   3.883935e-04 
  1.310000e+03   3.679976e-04 
  1.312000e+03   3.939023e-04 
  1.314000e+03   3.971402e-04 
  1.316000e+03   3.606224e-04 
  1.318000e+03   3.610788e-04 
  1.320000e+03   3.617904e-04 
  1.322000e+03   3.734172e-04 
  1.324000e+03   3.819735e-04 
  1.326000e+03   3.966753e-04 
  1.328000e+03   4.321672e-04 
  1.330000e+03   4.152191e-04 
  1.332000e+03   4.100772e-04 
  1.334000e+03   4.049653e-04 
  1.336000e+03   3.898842e-04 
  1.338000e+03   3.711405e-04 
  1.340000e+03   3.549487e-04 
  1.342000e+03   3.608535e-04 
  1.344000e+03   3.760089e-04 
  1.346000e+03   3.772876e-04 
  1.348000e+03   3.916248e-04 
  1.350000e+03   3.630694e-04 
  1.352000e+03   3.551609e-04 
  1.354000e+03   4.049677e-04 
  1.356000e+03   4.010494e-04 
  1.358000e+03   3.946275e-04 
  1.360000e+03   3.961549e-04 
  1.362000e+03   3.786008e-04 
  1.364000e+03   3.955678e-04 
  1.366000e+03   4.012245e-04 
  1.368000e+03   3.742804e-04 
  1.370000e+03   3.690750e-04 
  1.372000e+03   4.003470e-04 
  1.374000e+03   3.920204e-04 
  1.376000e+03   3.481503e-04 
  1.378000e+03   3.724367e-04 
  1.380000e+03   3.680311e-04 
  1.382000e+03   3.837427e-04 
  1.384000e+03   3.840178e-04 
  1.386000e+03   3.780796e-04 
  1.388000e+03   3.916670e-04 
  1.390000e+03   4.039228e-04 
  1.392000e+03   4.210243e-04 
  1.394000e+03   4.260836e-04 
  1.396000e+03   3.569068e-04 
  1.398000e+03   3.607573e-04 
  1.400000e+03   3.722215e-04 
  1.402000e+03   3.752327e-04 
  1.404000e+03   3.700034e-04 
  1.406000e+03   3.723640e-04 
  1.408000e+03   4.208868e-04 
  1.410000e+03   4.110908e-04 
  1.412000e+03   4.068153e-04 
  1.414000e+03   4.104062e-04 
  1.416000e+03   4.071868e-04 
  1.418000e+03   4.100236e-04 
  1.420000e+03   3.781286e-04 
  1.422000e+03   3.906635e-04 
  1.424000e+03   4.077738e-04 
  1.426000e+03   3.969091e-04 
  1.428000e+03   4.191246e-04 
  1.430000e+03   4.111338e-04 
  1.432000e+03   3.489075e-04 
  1.434000e+03   3.643526e-04 
  1.436000e+03   3.705978e-04 
  1.438000e+03   3.901136e-04 
  1.440000e+03   4.006289e-04 
  1.442000e+03   4.102799e-04 
  1.444000e+03   3.898241e-04 
  1.446000e+03   3.844053e-04 
  1.448000e+03   3.909512e-04 
  1.450000e+03   3.653800e-04 
  1.452000e+03   3.681000e-04 
  1.454000e+03   3.786324e-04 
  1.456000e+03   3.998012e-04 
  1.458000e+03   4.231739e-04 
  1.460000e+03   4.196304e-04 
  1.462000e+03   3.797787e-04 
  1.464000e+03   3.538887e-04 
  1.466000e+03   3.767618e-04 
  1.468000e+03   4.008572e-04 
  1.470000e+03   3.729238e-04 
  1.472000e+03   3.555437e-04 
  1.474000e+03   3.977067e-04 
  1.476000e+03   4.172315e-04 
  1.478000e+03   4.000184e-04 
  1.480000e+03   4.024278e-04 
  1.482000e+03   3.706400e-04 
  1.484000e+03   3.893470e-04 
  1.486000e+03   4.082680e-04 
  1.488000e+03   3.867404e-04 
  1.490000e+03   3.712756e-04 
  1.492000e+03   3.486706e-04 
  1.494000e+03   3.718107e-04 
  1.496000e+03   3.938464e-04 
  1.498000e+03   3.756430e-04 
  1.500000e+03   3.507491e-04 
  1.502000e+03   3.705685e-04 
  1.504000e+03   3.713972e-04 
  1.506000e+03   3.995264e-04 
  1.508000e+03   3.721111e-04 
  1.510000e+03   3.628065e-04 
  1.512000e+03   4.258264e-04 
  1.514000e+03   4.299958e-04 
  1.516000e+03   3.898583e-04 
  1.518000e+03   4.056157e-04 
  1.520000e+03   3.989129e-04 
  1.522000e+03   4.028919e-04 
  1.524000e+03   3.979710e-04 
  1.526000e+03   3.968820e-04 
  1.528000e+03   4.285676e-04 
  1.530000e+03   4.078904e-04 
  1.532000e+03   3.897614e-04 
  1.534000e+03   3.726482e-04 
  1.536000e+03   3.492140e-04 
  1.538000e+03   3.862592e-04 
  1.540000e+03   3.880724e-04 
  1.542000e+03   3.718972e-04 
  1.544000e+03   3.884401e-04 
  1.546000e+03   3.361542e-04 
  1.548000e+03   3.468705e-04 
  1.550000e+03   4.003019e-04 
  1.552000e+03   4.058723e-04 
  1.554000e+03   3.772803e-04 
  1.556000e+03   3.703856e-04 
  1.558000e+03   4.134568e-04 
  1.560000e+03   3.963110e-04 
  1.562000e+03   3.745968e-04 
  1.564000e+03   3.746363e-04 
  1.566000e+03   3.716277e-04 
  1.568000e+03   3.709631e-04 
  1.570000e+03   3.837333e-04 
  1.572000e+03   3.750602e-04 
  1.574000e+03   3.511492e-04 
  1.576000e+03   3.615564e-04 
  1.578000e+03   3.660109e-04 
  1.580000e+03   3.803459e-04 
  1.582000e+03   3.984534e-04 
  1.584000e+03   3.704452e-04 
  1.586000e+03   3.674971e-04 
  1.588000e+03   3.803324e-04 
  1.590000e+03   3.841046e-04 
  1.592000e+03   3.613383e-04 
  1.594000e+03   3.609975e-04 
  1.596000e+03   3.877309e-04 
  1.598000e+03   4.189691e-04 
  1.600000e+03   3.732045e-04 
