Input File: 02NSOUTO.78D
Measure Group: FFT
Measurement: FFT 1
Num of extracted Points: 801
Start Freq: -0 Hz
Span: 1.6 kHz
FFT Lines:  800 
Window: Hanning
Averaging Mode: RMS
Averaging Type: Linear / Fix Len
Number of Avg:  100
Overload reject: On

    X[Hz]      Vrms/Hz^(1/... 
  0.000000e+00   9.314967e-01 
  2.000000e+00   4.657336e-01 
  4.000000e+00   3.090281e-03 
  6.000000e+00   3.050787e-03 
  8.000000e+00   4.379298e-03 
  1.000000e+01   7.123189e-03 
  1.200000e+01   1.057913e-02 
  1.400000e+01   1.279460e-02 
  1.600000e+01   9.551683e-03 
  1.800000e+01   7.165308e-03 
  2.000000e+01   5.289074e-03 
  2.200000e+01   3.290734e-03 
  2.400000e+01   2.524269e-03 
  2.600000e+01   2.110677e-03 
  2.800000e+01   2.824526e-03 
  3.000000e+01   3.972237e-03 
  3.200000e+01   2.239080e-03 
  3.400000e+01   3.297137e-03 
  3.600000e+01   4.191143e-03 
  3.800000e+01   2.514933e-03 
  4.000000e+01   1.793909e-03 
  4.200000e+01   1.697995e-03 
  4.400000e+01   2.192189e-03 
  4.600000e+01   2.261790e-03 
  4.800000e+01   2.734933e-03 
  5.000000e+01   2.833255e-03 
  5.200000e+01   2.544082e-03 
  5.400000e+01   2.295863e-03 
  5.600000e+01   3.615486e-03 
  5.800000e+01   4.706359e-03 
  6.000000e+01   6.890337e-03 
  6.200000e+01   6.068566e-03 
  6.400000e+01   5.057450e-03 
  6.600000e+01   4.263657e-03 
  6.800000e+01   3.150866e-03 
  7.000000e+01   2.865352e-03 
  7.200000e+01   3.773999e-03 
  7.400000e+01   3.723275e-03 
  7.600000e+01   3.653547e-03 
  7.800000e+01   3.522447e-03 
  8.000000e+01   3.560092e-03 
  8.200000e+01   3.842411e-03 
  8.400000e+01   3.847329e-03 
  8.600000e+01   3.555998e-03 
  8.800000e+01   3.047636e-03 
  9.000000e+01   2.456263e-03 
  9.200000e+01   2.633796e-03 
  9.400000e+01   2.936779e-03 
  9.600000e+01   2.545070e-03 
  9.800000e+01   2.226667e-03 
  1.000000e+02   2.090673e-03 
  1.020000e+02   1.921743e-03 
  1.040000e+02   1.859066e-03 
  1.060000e+02   1.940868e-03 
  1.080000e+02   1.871958e-03 
  1.100000e+02   1.826450e-03 
  1.120000e+02   1.855440e-03 
  1.140000e+02   2.259844e-03 
  1.160000e+02   3.037248e-03 
  1.180000e+02   8.765155e-03 
  1.200000e+02   1.705059e-02 
  1.220000e+02   8.742486e-03 
  1.240000e+02   1.536361e-03 
  1.260000e+02   1.395179e-03 
  1.280000e+02   1.358739e-03 
  1.300000e+02   1.387797e-03 
  1.320000e+02   1.613975e-03 
  1.340000e+02   1.781329e-03 
  1.360000e+02   1.493595e-03 
  1.380000e+02   1.451731e-03 
  1.400000e+02   1.295065e-03 
  1.420000e+02   1.100057e-03 
  1.440000e+02   1.245271e-03 
  1.460000e+02   1.164461e-03 
  1.480000e+02   1.051147e-03 
  1.500000e+02   9.684235e-04 
  1.520000e+02   8.470775e-04 
  1.540000e+02   1.125779e-03 
  1.560000e+02   1.131871e-03 
  1.580000e+02   8.660140e-04 
  1.600000e+02   9.387422e-04 
  1.620000e+02   7.970365e-04 
  1.640000e+02   7.387319e-04 
  1.660000e+02   7.395461e-04 
  1.680000e+02   6.918654e-04 
  1.700000e+02   6.051629e-04 
  1.720000e+02   6.108542e-04 
  1.740000e+02   6.739908e-04 
  1.760000e+02   8.198972e-04 
  1.780000e+02   1.109172e-03 
  1.800000e+02   1.549861e-03 
  1.820000e+02   1.083994e-03 
  1.840000e+02   8.334590e-04 
  1.860000e+02   5.897068e-04 
  1.880000e+02   5.516902e-04 
  1.900000e+02   5.840711e-04 
  1.920000e+02   6.791045e-04 
  1.940000e+02   6.751549e-04 
  1.960000e+02   7.038326e-04 
  1.980000e+02   7.253644e-04 
  2.000000e+02   7.358388e-04 
  2.020000e+02   7.357614e-04 
  2.040000e+02   8.294959e-04 
  2.060000e+02   7.945970e-04 
  2.080000e+02   7.611397e-04 
  2.100000e+02   9.247842e-04 
  2.120000e+02   8.508486e-04 
  2.140000e+02   7.641565e-04 
  2.160000e+02   6.474891e-04 
  2.180000e+02   6.868861e-04 
  2.200000e+02   8.157592e-04 
  2.220000e+02   9.568806e-04 
  2.240000e+02   1.233377e-03 
  2.260000e+02   1.553399e-03 
  2.280000e+02   1.331706e-03 
  2.300000e+02   9.454969e-04 
  2.320000e+02   7.023206e-04 
  2.340000e+02   6.227224e-04 
  2.360000e+02   6.395056e-04 
  2.380000e+02   7.610628e-03 
  2.400000e+02   1.550055e-02 
  2.420000e+02   7.962403e-03 
  2.440000e+02   5.950803e-04 
  2.460000e+02   6.198557e-04 
  2.480000e+02   6.522385e-04 
  2.500000e+02   8.921192e-04 
  2.520000e+02   1.226907e-03 
  2.540000e+02   1.482776e-03 
  2.560000e+02   1.249010e-03 
  2.580000e+02   9.141022e-04 
  2.600000e+02   6.788219e-04 
  2.620000e+02   5.727200e-04 
  2.640000e+02   4.868304e-04 
  2.660000e+02   4.887051e-04 
  2.680000e+02   5.561132e-04 
  2.700000e+02   6.296130e-04 
  2.720000e+02   5.051794e-04 
  2.740000e+02   5.431223e-04 
  2.760000e+02   5.949660e-04 
  2.780000e+02   5.138027e-04 
  2.800000e+02   4.905096e-04 
  2.820000e+02   4.615115e-04 
  2.840000e+02   4.861023e-04 
  2.860000e+02   4.997129e-04 
  2.880000e+02   5.000132e-04 
  2.900000e+02   4.667688e-04 
  2.920000e+02   4.605872e-04 
  2.940000e+02   4.979563e-04 
  2.960000e+02   5.891198e-04 
  2.980000e+02   6.813608e-04 
  3.000000e+02   8.716460e-04 
  3.020000e+02   7.976868e-04 
  3.040000e+02   6.521466e-04 
  3.060000e+02   4.959063e-04 
  3.080000e+02   4.233593e-04 
  3.100000e+02   4.919042e-04 
  3.120000e+02   5.410982e-04 
  3.140000e+02   5.755744e-04 
  3.160000e+02   5.688128e-04 
  3.180000e+02   5.210922e-04 
  3.200000e+02   5.663375e-04 
  3.220000e+02   5.735006e-04 
  3.240000e+02   5.949373e-04 
  3.260000e+02   5.695072e-04 
  3.280000e+02   5.480935e-04 
  3.300000e+02   5.232689e-04 
  3.320000e+02   5.081983e-04 
  3.340000e+02   5.239144e-04 
  3.360000e+02   4.570982e-04 
  3.380000e+02   4.759097e-04 
  3.400000e+02   4.984868e-04 
  3.420000e+02   4.896336e-04 
  3.440000e+02   4.885957e-04 
  3.460000e+02   5.500737e-04 
  3.480000e+02   5.605629e-04 
  3.500000e+02   4.519187e-04 
  3.520000e+02   4.603567e-04 
  3.540000e+02   4.934529e-04 
  3.560000e+02   5.541543e-04 
  3.580000e+02   1.204971e-03 
  3.600000e+02   2.385662e-03 
  3.620000e+02   1.312757e-03 
  3.640000e+02   4.416177e-04 
  3.660000e+02   4.599840e-04 
  3.680000e+02   4.641813e-04 
  3.700000e+02   4.500939e-04 
  3.720000e+02   4.593058e-04 
  3.740000e+02   4.238304e-04 
  3.760000e+02   4.404613e-04 
  3.780000e+02   4.351811e-04 
  3.800000e+02   4.514334e-04 
  3.820000e+02   4.578010e-04 
  3.840000e+02   4.709969e-04 
  3.860000e+02   4.543432e-04 
  3.880000e+02   4.678304e-04 
  3.900000e+02   4.759893e-04 
  3.920000e+02   4.337463e-04 
  3.940000e+02   4.130491e-04 
  3.960000e+02   4.630454e-04 
  3.980000e+02   4.845519e-04 
  4.000000e+02   4.467736e-04 
  4.020000e+02   4.182070e-04 
  4.040000e+02   4.138628e-04 
  4.060000e+02   4.510043e-04 
  4.080000e+02   4.233936e-04 
  4.100000e+02   4.229255e-04 
  4.120000e+02   3.989118e-04 
  4.140000e+02   4.304594e-04 
  4.160000e+02   4.039419e-04 
  4.180000e+02   4.895073e-04 
  4.200000e+02   7.307210e-04 
  4.220000e+02   5.527054e-04 
  4.240000e+02   3.987437e-04 
  4.260000e+02   3.874010e-04 
  4.280000e+02   3.978713e-04 
  4.300000e+02   4.213765e-04 
  4.320000e+02   4.536339e-04 
  4.340000e+02   4.299936e-04 
  4.360000e+02   4.072571e-04 
  4.380000e+02   3.784880e-04 
  4.400000e+02   4.283921e-04 
  4.420000e+02   3.902074e-04 
  4.440000e+02   4.090428e-04 
  4.460000e+02   4.495789e-04 
  4.480000e+02   4.131522e-04 
  4.500000e+02   3.859082e-04 
  4.520000e+02   3.848778e-04 
  4.540000e+02   3.913863e-04 
  4.560000e+02   3.946137e-04 
  4.580000e+02   3.964641e-04 
  4.600000e+02   4.142920e-04 
  4.620000e+02   3.934191e-04 
  4.640000e+02   4.127607e-04 
  4.660000e+02   4.205749e-04 
  4.680000e+02   4.050540e-04 
  4.700000e+02   4.298550e-04 
  4.720000e+02   4.358692e-04 
  4.740000e+02   4.144403e-04 
  4.760000e+02   3.971476e-04 
  4.780000e+02   5.724883e-04 
  4.800000e+02   8.886005e-04 
  4.820000e+02   5.850533e-04 
  4.840000e+02   4.129053e-04 
  4.860000e+02   3.945541e-04 
  4.880000e+02   3.969715e-04 
  4.900000e+02   4.051903e-04 
  4.920000e+02   3.866430e-04 
  4.940000e+02   3.881488e-04 
  4.960000e+02   3.873634e-04 
  4.980000e+02   3.834676e-04 
  5.000000e+02   4.026904e-04 
  5.020000e+02   4.051068e-04 
  5.040000e+02   4.012909e-04 
  5.060000e+02   3.758022e-04 
  5.080000e+02   3.908335e-04 
  5.100000e+02   4.037572e-04 
  5.120000e+02   3.866820e-04 
  5.140000e+02   3.606278e-04 
  5.160000e+02   3.959560e-04 
  5.180000e+02   4.055098e-04 
  5.200000e+02   3.627640e-04 
  5.220000e+02   3.925466e-04 
  5.240000e+02   3.929022e-04 
  5.260000e+02   3.870826e-04 
  5.280000e+02   3.868440e-04 
  5.300000e+02   4.026791e-04 
  5.320000e+02   4.180041e-04 
  5.340000e+02   4.048783e-04 
  5.360000e+02   3.583760e-04 
  5.380000e+02   3.755074e-04 
  5.400000e+02   4.202368e-04 
  5.420000e+02   3.840392e-04 
  5.440000e+02   4.107106e-04 
  5.460000e+02   4.438541e-04 
  5.480000e+02   4.175167e-04 
  5.500000e+02   3.925407e-04 
  5.520000e+02   3.766615e-04 
  5.540000e+02   4.228250e-04 
  5.560000e+02   4.512983e-04 
  5.580000e+02   4.314932e-04 
  5.600000e+02   3.973024e-04 
  5.620000e+02   3.915998e-04 
  5.640000e+02   3.757485e-04 
  5.660000e+02   3.834486e-04 
  5.680000e+02   4.056049e-04 
  5.700000e+02   4.198477e-04 
  5.720000e+02   3.933618e-04 
  5.740000e+02   3.607363e-04 
  5.760000e+02   3.788729e-04 
  5.780000e+02   3.816665e-04 
  5.800000e+02   3.725482e-04 
  5.820000e+02   3.649685e-04 
  5.840000e+02   3.728649e-04 
  5.860000e+02   3.870027e-04 
  5.880000e+02   4.065643e-04 
  5.900000e+02   3.821629e-04 
  5.920000e+02   3.931052e-04 
  5.940000e+02   4.291308e-04 
  5.960000e+02   4.121168e-04 
  5.980000e+02   4.605328e-04 
  6.000000e+02   5.105251e-04 
  6.020000e+02   4.100711e-04 
  6.040000e+02   3.691716e-04 
  6.060000e+02   3.763767e-04 
  6.080000e+02   3.765628e-04 
  6.100000e+02   3.786611e-04 
  6.120000e+02   3.875438e-04 
  6.140000e+02   4.168095e-04 
  6.160000e+02   4.277566e-04 
  6.180000e+02   4.247078e-04 
  6.200000e+02   4.315868e-04 
  6.220000e+02   3.763292e-04 
  6.240000e+02   3.847171e-04 
  6.260000e+02   4.096091e-04 
  6.280000e+02   3.878013e-04 
  6.300000e+02   3.965371e-04 
  6.320000e+02   4.115836e-04 
  6.340000e+02   4.071243e-04 
  6.360000e+02   3.903120e-04 
  6.380000e+02   3.703703e-04 
  6.400000e+02   3.794322e-04 
  6.420000e+02   3.975378e-04 
  6.440000e+02   3.957895e-04 
  6.460000e+02   3.571727e-04 
  6.480000e+02   3.571215e-04 
  6.500000e+02   3.745498e-04 
  6.520000e+02   3.737329e-04 
  6.540000e+02   3.544658e-04 
  6.560000e+02   3.785014e-04 
  6.580000e+02   4.216228e-04 
  6.600000e+02   4.251224e-04 
  6.620000e+02   4.318526e-04 
  6.640000e+02   4.317790e-04 
  6.660000e+02   4.123586e-04 
  6.680000e+02   3.876385e-04 
  6.700000e+02   3.556082e-04 
  6.720000e+02   3.519086e-04 
  6.740000e+02   3.858139e-04 
  6.760000e+02   3.957011e-04 
  6.780000e+02   3.920702e-04 
  6.800000e+02   3.810539e-04 
  6.820000e+02   3.611247e-04 
  6.840000e+02   3.971988e-04 
  6.860000e+02   4.086339e-04 
  6.880000e+02   4.135373e-04 
  6.900000e+02   3.850992e-04 
  6.920000e+02   3.866554e-04 
  6.940000e+02   4.129451e-04 
  6.960000e+02   4.272699e-04 
  6.980000e+02   4.123634e-04 
  7.000000e+02   3.666143e-04 
  7.020000e+02   3.614239e-04 
  7.040000e+02   3.789526e-04 
  7.060000e+02   3.687372e-04 
  7.080000e+02   3.739931e-04 
  7.100000e+02   3.805123e-04 
  7.120000e+02   3.570233e-04 
  7.140000e+02   3.842343e-04 
  7.160000e+02   3.824269e-04 
  7.180000e+02   3.947441e-04 
  7.200000e+02   4.165910e-04 
  7.220000e+02   3.932346e-04 
  7.240000e+02   3.897280e-04 
  7.260000e+02   3.792236e-04 
  7.280000e+02   3.965986e-04 
  7.300000e+02   4.092320e-04 
  7.320000e+02   4.228988e-04 
  7.340000e+02   3.998906e-04 
  7.360000e+02   3.494781e-04 
  7.380000e+02   3.994975e-04 
  7.400000e+02   3.986698e-04 
  7.420000e+02   3.793080e-04 
  7.440000e+02   3.898055e-04 
  7.460000e+02   3.790674e-04 
  7.480000e+02   3.753467e-04 
  7.500000e+02   3.965245e-04 
  7.520000e+02   4.113667e-04 
  7.540000e+02   3.699785e-04 
  7.560000e+02   3.796529e-04 
  7.580000e+02   4.192081e-04 
  7.600000e+02   4.031599e-04 
  7.620000e+02   3.827564e-04 
  7.640000e+02   3.757839e-04 
  7.660000e+02   4.005240e-04 
  7.680000e+02   3.957359e-04 
  7.700000e+02   3.886095e-04 
  7.720000e+02   3.930863e-04 
  7.740000e+02   3.808431e-04 
  7.760000e+02   3.721579e-04 
  7.780000e+02   4.000382e-04 
  7.800000e+02   4.258065e-04 
  7.820000e+02   3.891212e-04 
  7.840000e+02   3.875425e-04 
  7.860000e+02   3.949804e-04 
  7.880000e+02   3.782995e-04 
  7.900000e+02   3.767054e-04 
  7.920000e+02   3.588212e-04 
  7.940000e+02   3.578335e-04 
  7.960000e+02   3.759090e-04 
  7.980000e+02   4.052385e-04 
  8.000000e+02   4.000196e-04 
  8.020000e+02   3.657989e-04 
  8.040000e+02   3.690275e-04 
  8.060000e+02   3.661822e-04 
  8.080000e+02   3.820898e-04 
  8.100000e+02   3.745666e-04 
  8.120000e+02   3.602684e-04 
  8.140000e+02   3.604611e-04 
  8.160000e+02   3.719086e-04 
  8.180000e+02   4.113973e-04 
  8.200000e+02   3.981877e-04 
  8.220000e+02   3.636680e-04 
  8.240000e+02   3.790284e-04 
  8.260000e+02   3.772665e-04 
  8.280000e+02   3.720298e-04 
  8.300000e+02   3.809560e-04 
  8.320000e+02   3.836613e-04 
  8.340000e+02   4.055983e-04 
  8.360000e+02   3.909302e-04 
  8.380000e+02   3.921946e-04 
  8.400000e+02   3.678180e-04 
  8.420000e+02   3.938019e-04 
  8.440000e+02   4.286103e-04 
  8.460000e+02   4.026405e-04 
  8.480000e+02   3.618886e-04 
  8.500000e+02   3.568389e-04 
  8.520000e+02   3.852533e-04 
  8.540000e+02   4.024601e-04 
  8.560000e+02   4.088386e-04 
  8.580000e+02   4.093564e-04 
  8.600000e+02   3.922187e-04 
  8.620000e+02   3.806853e-04 
  8.640000e+02   3.271606e-04 
  8.660000e+02   3.937162e-04 
  8.680000e+02   4.094995e-04 
  8.700000e+02   3.490001e-04 
  8.720000e+02   3.564152e-04 
  8.740000e+02   4.027284e-04 
  8.760000e+02   4.093412e-04 
  8.780000e+02   3.664167e-04 
  8.800000e+02   3.510828e-04 
  8.820000e+02   3.786892e-04 
  8.840000e+02   4.322733e-04 
  8.860000e+02   4.252091e-04 
  8.880000e+02   3.960618e-04 
  8.900000e+02   3.884583e-04 
  8.920000e+02   4.007669e-04 
  8.940000e+02   3.958016e-04 
  8.960000e+02   3.981254e-04 
  8.980000e+02   3.752695e-04 
  9.000000e+02   4.019457e-04 
  9.020000e+02   3.913498e-04 
  9.040000e+02   3.749433e-04 
  9.060000e+02   3.777531e-04 
  9.080000e+02   3.873288e-04 
  9.100000e+02   4.062656e-04 
  9.120000e+02   3.952981e-04 
  9.140000e+02   3.967832e-04 
  9.160000e+02   3.664059e-04 
  9.180000e+02   3.766091e-04 
  9.200000e+02   3.794066e-04 
  9.220000e+02   4.118243e-04 
  9.240000e+02   4.066513e-04 
  9.260000e+02   4.129432e-04 
  9.280000e+02   3.689418e-04 
  9.300000e+02   3.767745e-04 
  9.320000e+02   4.350373e-04 
  9.340000e+02   4.164308e-04 
  9.360000e+02   3.896189e-04 
  9.380000e+02   3.679244e-04 
  9.400000e+02   4.008608e-04 
  9.420000e+02   4.069773e-04 
  9.440000e+02   3.973114e-04 
  9.460000e+02   3.940653e-04 
  9.480000e+02   3.915802e-04 
  9.500000e+02   3.622923e-04 
  9.520000e+02   3.759783e-04 
  9.540000e+02   3.862486e-04 
  9.560000e+02   3.698085e-04 
  9.580000e+02   3.652568e-04 
  9.600000e+02   3.376118e-04 
  9.620000e+02   3.548027e-04 
  9.640000e+02   3.770895e-04 
  9.660000e+02   3.748923e-04 
  9.680000e+02   3.530217e-04 
  9.700000e+02   3.772717e-04 
  9.720000e+02   3.685621e-04 
  9.740000e+02   3.711206e-04 
  9.760000e+02   4.031992e-04 
  9.780000e+02   3.947871e-04 
  9.800000e+02   3.917155e-04 
  9.820000e+02   3.936912e-04 
  9.840000e+02   3.714142e-04 
  9.860000e+02   3.870834e-04 
  9.880000e+02   3.952075e-04 
  9.900000e+02   3.910121e-04 
  9.920000e+02   3.771443e-04 
  9.940000e+02   3.907906e-04 
  9.960000e+02   3.656869e-04 
  9.980000e+02   3.584906e-04 
  1.000000e+03   3.733297e-04 
  1.002000e+03   4.032661e-04 
  1.004000e+03   4.041004e-04 
  1.006000e+03   4.050437e-04 
  1.008000e+03   3.843157e-04 
  1.010000e+03   3.612007e-04 
  1.012000e+03   3.529727e-04 
  1.014000e+03   3.789279e-04 
  1.016000e+03   3.845797e-04 
  1.018000e+03   3.699127e-04 
  1.020000e+03   3.909683e-04 
  1.022000e+03   4.020932e-04 
  1.024000e+03   3.678988e-04 
  1.026000e+03   3.634759e-04 
  1.028000e+03   4.003763e-04 
  1.030000e+03   3.697978e-04 
  1.032000e+03   3.670777e-04 
  1.034000e+03   4.103934e-04 
  1.036000e+03   3.960526e-04 
  1.038000e+03   3.803032e-04 
  1.040000e+03   3.764711e-04 
  1.042000e+03   4.169515e-04 
  1.044000e+03   4.107271e-04 
  1.046000e+03   3.646420e-04 
  1.048000e+03   3.619970e-04 
  1.050000e+03   3.722562e-04 
  1.052000e+03   3.698439e-04 
  1.054000e+03   3.853017e-04 
  1.056000e+03   3.794295e-04 
  1.058000e+03   3.808980e-04 
  1.060000e+03   3.639707e-04 
  1.062000e+03   3.705125e-04 
  1.064000e+03   3.822817e-04 
  1.066000e+03   3.907055e-04 
  1.068000e+03   4.318526e-04 
  1.070000e+03   4.230916e-04 
  1.072000e+03   3.934980e-04 
  1.074000e+03   3.597298e-04 
  1.076000e+03   3.742215e-04 
  1.078000e+03   3.837293e-04 
  1.080000e+03   4.048414e-04 
  1.082000e+03   4.024084e-04 
  1.084000e+03   3.747818e-04 
  1.086000e+03   3.785419e-04 
  1.088000e+03   4.052141e-04 
  1.090000e+03   4.445609e-04 
  1.092000e+03   4.407913e-04 
  1.094000e+03   3.992998e-04 
  1.096000e+03   4.297704e-04 
  1.098000e+03   4.270398e-04 
  1.100000e+03   4.786616e-04 
  1.102000e+03   5.071864e-04 
  1.104000e+03   4.487713e-04 
  1.106000e+03   3.993167e-04 
  1.108000e+03   4.174576e-04 
  1.110000e+03   4.176334e-04 
  1.112000e+03   4.043135e-04 
  1.114000e+03   3.822075e-04 
  1.116000e+03   3.785476e-04 
  1.118000e+03   3.947554e-04 
  1.120000e+03   4.233279e-04 
  1.122000e+03   4.204579e-04 
  1.124000e+03   4.250550e-04 
  1.126000e+03   4.476824e-04 
  1.128000e+03   4.590542e-04 
  1.130000e+03   4.182075e-04 
  1.132000e+03   3.915965e-04 
  1.134000e+03   3.470539e-04 
  1.136000e+03   3.534350e-04 
  1.138000e+03   3.974479e-04 
  1.140000e+03   3.770486e-04 
  1.142000e+03   3.924530e-04 
  1.144000e+03   4.312003e-04 
  1.146000e+03   3.695738e-04 
  1.148000e+03   3.382323e-04 
  1.150000e+03   4.027623e-04 
  1.152000e+03   3.818218e-04 
  1.154000e+03   3.820912e-04 
  1.156000e+03   4.063430e-04 
  1.158000e+03   4.290679e-04 
  1.160000e+03   4.013285e-04 
  1.162000e+03   3.844891e-04 
  1.164000e+03   3.802302e-04 
  1.166000e+03   3.701044e-04 
  1.168000e+03   3.740593e-04 
  1.170000e+03   3.579863e-04 
  1.172000e+03   3.548667e-04 
  1.174000e+03   3.851606e-04 
  1.176000e+03   3.931550e-04 
  1.178000e+03   4.134779e-04 
  1.180000e+03   4.406431e-04 
  1.182000e+03   4.005993e-04 
  1.184000e+03   3.466369e-04 
  1.186000e+03   3.501212e-04 
  1.188000e+03   3.596469e-04 
  1.190000e+03   3.568645e-04 
  1.192000e+03   3.648294e-04 
  1.194000e+03   3.439367e-04 
  1.196000e+03   3.427678e-04 
  1.198000e+03   3.776177e-04 
  1.200000e+03   3.649931e-04 
  1.202000e+03   3.332432e-04 
  1.204000e+03   3.318012e-04 
  1.206000e+03   3.816425e-04 
  1.208000e+03   4.114722e-04 
  1.210000e+03   3.622315e-04 
  1.212000e+03   3.513535e-04 
  1.214000e+03   3.858184e-04 
  1.216000e+03   3.800409e-04 
  1.218000e+03   3.686511e-04 
  1.220000e+03   3.794169e-04 
  1.222000e+03   3.802612e-04 
  1.224000e+03   3.827317e-04 
  1.226000e+03   4.006352e-04 
  1.228000e+03   3.881937e-04 
  1.230000e+03   3.692437e-04 
  1.232000e+03   3.787679e-04 
  1.234000e+03   3.760261e-04 
  1.236000e+03   3.682938e-04 
  1.238000e+03   3.486283e-04 
  1.240000e+03   3.739376e-04 
  1.242000e+03   3.955330e-04 
  1.244000e+03   4.188892e-04 
  1.246000e+03   4.042119e-04 
  1.248000e+03   3.638940e-04 
  1.250000e+03   3.640203e-04 
  1.252000e+03   3.870896e-04 
  1.254000e+03   3.868356e-04 
  1.256000e+03   4.091277e-04 
  1.258000e+03   3.774742e-04 
  1.260000e+03   4.008090e-04 
  1.262000e+03   4.123033e-04 
  1.264000e+03   3.746360e-04 
  1.266000e+03   3.775027e-04 
  1.268000e+03   3.798582e-04 
  1.270000e+03   3.698959e-04 
  1.272000e+03   3.843620e-04 
  1.274000e+03   3.623279e-04 
  1.276000e+03   3.792672e-04 
  1.278000e+03   4.095159e-04 
  1.280000e+03   4.091177e-04 
  1.282000e+03   4.049717e-04 
  1.284000e+03   3.950554e-04 
  1.286000e+03   4.005565e-04 
  1.288000e+03   3.841600e-04 
  1.290000e+03   3.610654e-04 
  1.292000e+03   3.518508e-04 
  1.294000e+03   4.028373e-04 
  1.296000e+03   3.805726e-04 
  1.298000e+03   3.611934e-04 
  1.300000e+03   3.845648e-04 
  1.302000e+03   3.719111e-04 
  1.304000e+03   3.806510e-04 
  1.306000e+03   3.951795e-04 
  1.308000e+03   3.964108e-04 
  1.310000e+03   3.857899e-04 
  1.312000e+03   3.802050e-04 
  1.314000e+03   3.767959e-04 
  1.316000e+03   3.875403e-04 
  1.318000e+03   3.926441e-04 
  1.320000e+03   3.969316e-04 
  1.322000e+03   3.571059e-04 
  1.324000e+03   3.572335e-04 
  1.326000e+03   3.735414e-04 
  1.328000e+03   3.929136e-04 
  1.330000e+03   3.702090e-04 
  1.332000e+03   3.702401e-04 
  1.334000e+03   3.889844e-04 
  1.336000e+03   3.772182e-04 
  1.338000e+03   4.098703e-04 
  1.340000e+03   4.086366e-04 
  1.342000e+03   3.984493e-04 
  1.344000e+03   3.582845e-04 
  1.346000e+03   3.567294e-04 
  1.348000e+03   3.903912e-04 
  1.350000e+03   3.838678e-04 
  1.352000e+03   3.617371e-04 
  1.354000e+03   3.468824e-04 
  1.356000e+03   3.744342e-04 
  1.358000e+03   4.084991e-04 
  1.360000e+03   4.094286e-04 
  1.362000e+03   4.100901e-04 
  1.364000e+03   4.208263e-04 
  1.366000e+03   3.972581e-04 
  1.368000e+03   3.610163e-04 
  1.370000e+03   4.045654e-04 
  1.372000e+03   4.296978e-04 
  1.374000e+03   4.049908e-04 
  1.376000e+03   4.088106e-04 
  1.378000e+03   4.011429e-04 
  1.380000e+03   3.808282e-04 
  1.382000e+03   3.622435e-04 
  1.384000e+03   3.954460e-04 
  1.386000e+03   3.757187e-04 
  1.388000e+03   3.793808e-04 
  1.390000e+03   3.748647e-04 
  1.392000e+03   3.733259e-04 
  1.394000e+03   4.097422e-04 
  1.396000e+03   3.911639e-04 
  1.398000e+03   3.723149e-04 
  1.400000e+03   3.712544e-04 
  1.402000e+03   3.706166e-04 
  1.404000e+03   3.652218e-04 
  1.406000e+03   3.537967e-04 
  1.408000e+03   3.722636e-04 
  1.410000e+03   3.730070e-04 
  1.412000e+03   3.486426e-04 
  1.414000e+03   3.627632e-04 
  1.416000e+03   3.874350e-04 
  1.418000e+03   4.032727e-04 
  1.420000e+03   3.537727e-04 
  1.422000e+03   3.408807e-04 
  1.424000e+03   3.474076e-04 
  1.426000e+03   3.443187e-04 
  1.428000e+03   3.578835e-04 
  1.430000e+03   3.558480e-04 
  1.432000e+03   3.735489e-04 
  1.434000e+03   3.881775e-04 
  1.436000e+03   4.090157e-04 
  1.438000e+03   3.708623e-04 
  1.440000e+03   3.601067e-04 
  1.442000e+03   3.643519e-04 
  1.444000e+03   3.818678e-04 
  1.446000e+03   3.927501e-04 
  1.448000e+03   3.822487e-04 
  1.450000e+03   3.937244e-04 
  1.452000e+03   3.906086e-04 
  1.454000e+03   4.039918e-04 
  1.456000e+03   3.644426e-04 
  1.458000e+03   3.577801e-04 
  1.460000e+03   3.801528e-04 
  1.462000e+03   3.755191e-04 
  1.464000e+03   3.789888e-04 
  1.466000e+03   3.804891e-04 
  1.468000e+03   3.712246e-04 
  1.470000e+03   3.774378e-04 
  1.472000e+03   3.825586e-04 
  1.474000e+03   3.935704e-04 
  1.476000e+03   3.668774e-04 
  1.478000e+03   3.929115e-04 
  1.480000e+03   3.591374e-04 
  1.482000e+03   3.401491e-04 
  1.484000e+03   3.618293e-04 
  1.486000e+03   3.758552e-04 
  1.488000e+03   3.856143e-04 
  1.490000e+03   4.049630e-04 
  1.492000e+03   3.668754e-04 
  1.494000e+03   3.757736e-04 
  1.496000e+03   3.882246e-04 
  1.498000e+03   3.777983e-04 
  1.500000e+03   3.798053e-04 
  1.502000e+03   3.837215e-04 
  1.504000e+03   3.783329e-04 
  1.506000e+03   3.840417e-04 
  1.508000e+03   3.738755e-04 
  1.510000e+03   3.793053e-04 
  1.512000e+03   3.742250e-04 
  1.514000e+03   3.796376e-04 
  1.516000e+03   3.750442e-04 
  1.518000e+03   3.923899e-04 
  1.520000e+03   3.820154e-04 
  1.522000e+03   3.718511e-04 
  1.524000e+03   3.755357e-04 
  1.526000e+03   3.832345e-04 
  1.528000e+03   4.006941e-04 
  1.530000e+03   4.029057e-04 
  1.532000e+03   3.693065e-04 
  1.534000e+03   3.787162e-04 
  1.536000e+03   3.947063e-04 
  1.538000e+03   3.931635e-04 
  1.540000e+03   3.532470e-04 
  1.542000e+03   3.826140e-04 
  1.544000e+03   3.701220e-04 
  1.546000e+03   3.751236e-04 
  1.548000e+03   3.867918e-04 
  1.550000e+03   3.738259e-04 
  1.552000e+03   3.635103e-04 
  1.554000e+03   3.411398e-04 
  1.556000e+03   3.800361e-04 
  1.558000e+03   3.728605e-04 
  1.560000e+03   3.722211e-04 
  1.562000e+03   3.464316e-04 
  1.564000e+03   3.684889e-04 
  1.566000e+03   3.590096e-04 
  1.568000e+03   3.673678e-04 
  1.570000e+03   3.915507e-04 
  1.572000e+03   3.614742e-04 
  1.574000e+03   3.665896e-04 
  1.576000e+03   3.685151e-04 
  1.578000e+03   3.978067e-04 
  1.580000e+03   4.105973e-04 
  1.582000e+03   3.931576e-04 
  1.584000e+03   3.863960e-04 
  1.586000e+03   3.884539e-04 
  1.588000e+03   3.813606e-04 
  1.590000e+03   3.830118e-04 
  1.592000e+03   3.697462e-04 
  1.594000e+03   3.430432e-04 
  1.596000e+03   3.796119e-04 
  1.598000e+03   3.773855e-04 
  1.600000e+03   3.795749e-04 
