Input File: 02NSOUT.78D
Measure Group: FFT
Measurement: FFT 1
Num of extracted Points: 401
Start Freq: -0 Hz
Span: 1.6 kHz
FFT Lines:  400 
Window: BMH
Averaging Mode: RMS
Averaging Type: Exp. / Cont.
Number of Avg:   76
Overload reject: Off

    X[Hz]      Vrms/Hz^(1/... 
  0.000000e+00   3.017544e-01 
  4.000000e+00   2.053982e-01 
  8.000000e+00   5.949883e-02 
  1.200000e+01   5.080523e-03 
  1.600000e+01   8.581109e-04 
  2.000000e+01   6.035096e-04 
  2.400000e+01   4.987413e-04 
  2.800000e+01   4.362919e-04 
  3.200000e+01   3.971589e-04 
  3.600000e+01   3.980026e-04 
  4.000000e+01   4.227316e-04 
  4.400000e+01   4.276772e-04 
  4.800000e+01   1.370165e-03 
  5.200000e+01   1.593280e-02 
  5.600000e+01   5.519162e-02 
  6.000000e+01   8.129910e-02 
  6.400000e+01   5.547623e-02 
  6.800000e+01   1.610069e-02 
  7.200000e+01   1.365342e-03 
  7.600000e+01   4.139706e-04 
  8.000000e+01   4.131485e-04 
  8.400000e+01   3.551288e-04 
  8.800000e+01   3.493112e-04 
  9.200000e+01   3.682996e-04 
  9.600000e+01   3.520639e-04 
  1.000000e+02   3.505106e-04 
  1.040000e+02   3.797156e-04 
  1.080000e+02   1.755370e-03 
  1.120000e+02   5.834768e-03 
  1.160000e+02   8.567156e-03 
  1.200000e+02   6.158395e-03 
  1.240000e+02   2.334241e-03 
  1.280000e+02   6.036066e-04 
  1.320000e+02   3.849126e-04 
  1.360000e+02   3.862863e-04 
  1.400000e+02   3.509039e-04 
  1.440000e+02   3.230459e-04 
  1.480000e+02   3.407863e-04 
  1.520000e+02   3.720969e-04 
  1.560000e+02   3.856000e-04 
  1.600000e+02   3.803682e-04 
  1.640000e+02   3.798071e-04 
  1.680000e+02   4.700743e-04 
  1.720000e+02   9.122099e-04 
  1.760000e+02   2.455159e-03 
  1.800000e+02   3.591686e-03 
  1.840000e+02   2.475581e-03 
  1.880000e+02   7.905061e-04 
  1.920000e+02   5.198438e-04 
  1.960000e+02   8.256186e-04 
  2.000000e+02   7.946821e-04 
  2.040000e+02   4.841511e-04 
  2.080000e+02   3.549272e-04 
  2.120000e+02   3.333515e-04 
  2.160000e+02   3.011400e-04 
  2.200000e+02   3.306395e-04 
  2.240000e+02   1.394447e-03 
  2.280000e+02   4.441972e-03 
  2.320000e+02   6.302417e-03 
  2.360000e+02   4.203040e-03 
  2.400000e+02   1.385450e-03 
  2.440000e+02   5.928012e-04 
  2.480000e+02   4.179573e-04 
  2.520000e+02   3.854432e-04 
  2.560000e+02   3.989421e-04 
  2.600000e+02   3.812288e-04 
  2.640000e+02   3.606697e-04 
  2.680000e+02   3.599661e-04 
  2.720000e+02   3.329532e-04 
  2.760000e+02   3.247265e-04 
  2.800000e+02   3.311093e-04 
  2.840000e+02   3.087897e-04 
  2.880000e+02   4.456434e-04 
  2.920000e+02   1.742539e-03 
  2.960000e+02   5.904065e-03 
  3.000000e+02   8.809798e-03 
  3.040000e+02   6.097658e-03 
  3.080000e+02   1.822815e-03 
  3.120000e+02   3.515632e-04 
  3.160000e+02   3.290430e-04 
  3.200000e+02   3.286134e-04 
  3.240000e+02   3.140136e-04 
  3.280000e+02   3.125588e-04 
  3.320000e+02   3.242525e-04 
  3.360000e+02   3.248708e-04 
  3.400000e+02   3.325264e-04 
  3.440000e+02   6.177032e-04 
  3.480000e+02   8.335226e-04 
  3.520000e+02   6.198945e-04 
  3.560000e+02   6.025130e-04 
  3.600000e+02   8.113359e-04 
  3.640000e+02   6.275384e-04 
  3.680000e+02   3.734904e-04 
  3.720000e+02   3.270113e-04 
  3.760000e+02   3.086118e-04 
  3.800000e+02   2.901481e-04 
  3.840000e+02   3.062161e-04 
  3.880000e+02   4.237395e-04 
  3.920000e+02   8.330505e-04 
  3.960000e+02   1.117661e-03 
  4.000000e+02   8.777484e-04 
  4.040000e+02   4.829448e-04 
  4.080000e+02   3.207971e-04 
  4.120000e+02   3.538106e-04 
  4.160000e+02   7.612565e-04 
  4.200000e+02   1.115040e-03 
  4.240000e+02   8.365406e-04 
  4.280000e+02   4.378763e-04 
  4.320000e+02   3.388574e-04 
  4.360000e+02   3.124544e-04 
  4.400000e+02   3.211868e-04 
  4.440000e+02   3.820079e-04 
  4.480000e+02   3.957660e-04 
  4.520000e+02   3.384124e-04 
  4.560000e+02   8.723328e-04 
  4.600000e+02   2.605055e-03 
  4.640000e+02   3.565624e-03 
  4.680000e+02   2.291698e-03 
  4.720000e+02   6.904474e-04 
  4.760000e+02   3.165795e-04 
  4.800000e+02   3.205282e-04 
  4.840000e+02   3.555753e-04 
  4.880000e+02   3.769281e-04 
  4.920000e+02   3.579069e-04 
  4.960000e+02   3.390174e-04 
  5.000000e+02   3.076378e-04 
  5.040000e+02   2.800553e-04 
  5.080000e+02   2.825985e-04 
  5.120000e+02   3.106712e-04 
  5.160000e+02   3.854266e-04 
  5.200000e+02   4.643761e-04 
  5.240000e+02   4.257064e-04 
  5.280000e+02   3.332905e-04 
  5.320000e+02   3.631453e-04 
  5.360000e+02   7.580323e-04 
  5.400000e+02   1.106419e-03 
  5.440000e+02   8.580551e-04 
  5.480000e+02   4.731565e-04 
  5.520000e+02   3.232982e-04 
  5.560000e+02   3.137448e-04 
  5.600000e+02   3.203547e-04 
  5.640000e+02   3.121200e-04 
  5.680000e+02   3.195390e-04 
  5.720000e+02   9.202231e-04 
  5.760000e+02   2.697995e-03 
  5.800000e+02   3.616394e-03 
  5.840000e+02   2.284671e-03 
  5.880000e+02   1.054706e-03 
  5.920000e+02   1.337299e-03 
  5.960000e+02   1.269633e-03 
  6.000000e+02   7.232693e-04 
  6.040000e+02   3.313939e-04 
  6.080000e+02   2.963622e-04 
  6.120000e+02   3.053327e-04 
  6.160000e+02   3.121445e-04 
  6.200000e+02   3.059623e-04 
  6.240000e+02   3.186668e-04 
  6.280000e+02   3.195009e-04 
  6.320000e+02   3.183818e-04 
  6.360000e+02   3.736085e-04 
  6.400000e+02   4.277410e-04 
  6.440000e+02   4.211890e-04 
  6.480000e+02   3.785453e-04 
  6.520000e+02   3.223071e-04 
  6.560000e+02   5.544882e-04 
  6.600000e+02   7.586114e-04 
  6.640000e+02   5.585377e-04 
  6.680000e+02   3.598410e-04 
  6.720000e+02   3.188754e-04 
  6.760000e+02   2.959106e-04 
  6.800000e+02   2.861287e-04 
  6.840000e+02   2.892667e-04 
  6.880000e+02   3.494166e-04 
  6.920000e+02   7.092702e-04 
  6.960000e+02   9.229109e-04 
  7.000000e+02   6.245381e-04 
  7.040000e+02   3.253618e-04 
  7.080000e+02   2.833095e-04 
  7.120000e+02   2.775140e-04 
  7.160000e+02   2.898387e-04 
  7.200000e+02   3.216322e-04 
  7.240000e+02   3.101226e-04 
  7.280000e+02   2.861659e-04 
  7.320000e+02   2.759694e-04 
  7.360000e+02   2.997140e-04 
  7.400000e+02   3.302240e-04 
  7.440000e+02   3.673416e-04 
  7.480000e+02   3.613569e-04 
  7.520000e+02   3.264665e-04 
  7.560000e+02   3.106766e-04 
  7.600000e+02   2.983180e-04 
  7.640000e+02   2.876543e-04 
  7.680000e+02   2.781563e-04 
  7.720000e+02   3.838331e-04 
  7.760000e+02   1.131242e-03 
  7.800000e+02   1.748967e-03 
  7.840000e+02   1.360622e-03 
  7.880000e+02   9.815962e-04 
  7.920000e+02   9.701999e-04 
  7.960000e+02   8.376733e-04 
  8.000000e+02   5.385426e-04 
  8.040000e+02   6.192446e-04 
  8.080000e+02   1.560202e-03 
  8.120000e+02   1.999153e-03 
  8.160000e+02   1.198939e-03 
  8.200000e+02   3.687344e-04 
  8.240000e+02   2.682655e-04 
  8.280000e+02   3.103735e-04 
  8.320000e+02   3.116748e-04 
  8.360000e+02   3.692644e-04 
  8.400000e+02   4.899276e-04 
  8.440000e+02   4.881011e-04 
  8.480000e+02   3.759201e-04 
  8.520000e+02   3.123696e-04 
  8.560000e+02   2.966278e-04 
  8.600000e+02   2.888613e-04 
  8.640000e+02   3.258197e-04 
  8.680000e+02   3.743233e-04 
  8.720000e+02   3.560318e-04 
  8.760000e+02   3.118953e-04 
  8.800000e+02   2.754923e-04 
  8.840000e+02   2.692308e-04 
  8.880000e+02   2.793999e-04 
  8.920000e+02   3.169609e-04 
  8.960000e+02   5.900916e-04 
  9.000000e+02   8.397214e-04 
  9.040000e+02   6.065114e-04 
  9.080000e+02   2.952386e-04 
  9.120000e+02   2.415131e-04 
  9.160000e+02   2.562208e-04 
  9.200000e+02   7.260444e-04 
  9.240000e+02   1.975070e-03 
  9.280000e+02   2.502186e-03 
  9.320000e+02   1.481297e-03 
  9.360000e+02   4.382135e-04 
  9.400000e+02   2.623564e-04 
  9.440000e+02   3.082156e-04 
  9.480000e+02   3.398869e-04 
  9.520000e+02   3.081145e-04 
  9.560000e+02   3.564470e-04 
  9.600000e+02   4.548631e-04 
  9.640000e+02   4.005819e-04 
  9.680000e+02   2.881169e-04 
  9.720000e+02   2.628152e-04 
  9.760000e+02   2.732869e-04 
  9.800000e+02   3.454277e-04 
  9.840000e+02   6.469868e-04 
  9.880000e+02   7.481728e-04 
  9.920000e+02   7.123385e-04 
  9.960000e+02   6.212110e-04 
  1.000000e+03   3.616537e-04 
  1.004000e+03   2.460679e-04 
  1.008000e+03   2.493270e-04 
  1.012000e+03   3.018796e-04 
  1.016000e+03   6.633276e-04 
  1.020000e+03   9.951455e-04 
  1.024000e+03   7.519195e-04 
  1.028000e+03   3.525474e-04 
  1.032000e+03   2.776383e-04 
  1.036000e+03   3.790975e-04 
  1.040000e+03   7.560396e-04 
  1.044000e+03   9.203722e-04 
  1.048000e+03   5.629383e-04 
  1.052000e+03   2.472404e-04 
  1.056000e+03   2.297260e-04 
  1.060000e+03   2.342551e-04 
  1.064000e+03   2.719112e-04 
  1.068000e+03   3.422019e-04 
  1.072000e+03   3.502276e-04 
  1.076000e+03   4.650727e-04 
  1.080000e+03   6.331226e-04 
  1.084000e+03   5.260460e-04 
  1.088000e+03   3.876142e-04 
  1.092000e+03   4.392790e-04 
  1.096000e+03   5.391141e-04 
  1.100000e+03   6.080882e-04 
  1.104000e+03   5.776717e-04 
  1.108000e+03   5.280726e-04 
  1.112000e+03   4.458448e-04 
  1.116000e+03   3.256260e-04 
  1.120000e+03   2.641484e-04 
  1.124000e+03   2.485861e-04 
  1.128000e+03   2.486673e-04 
  1.132000e+03   3.248971e-04 
  1.136000e+03   6.562466e-04 
  1.140000e+03   9.496934e-04 
  1.144000e+03   7.166887e-04 
  1.148000e+03   4.210408e-04 
  1.152000e+03   4.964237e-04 
  1.156000e+03   1.015672e-03 
  1.160000e+03   1.232174e-03 
  1.164000e+03   7.593133e-04 
  1.168000e+03   4.268044e-04 
  1.172000e+03   4.482316e-04 
  1.176000e+03   4.259594e-04 
  1.180000e+03   5.301308e-04 
  1.184000e+03   6.389620e-04 
  1.188000e+03   5.820736e-04 
  1.192000e+03   5.298344e-04 
  1.196000e+03   4.921788e-04 
  1.200000e+03   5.590590e-04 
  1.204000e+03   4.853179e-04 
  1.208000e+03   3.667232e-04 
  1.212000e+03   3.138079e-04 
  1.216000e+03   3.074041e-04 
  1.220000e+03   3.730326e-04 
  1.224000e+03   4.728586e-04 
  1.228000e+03   4.910120e-04 
  1.232000e+03   4.266913e-04 
  1.236000e+03   3.764091e-04 
  1.240000e+03   4.124551e-04 
  1.244000e+03   4.532184e-04 
  1.248000e+03   4.263835e-04 
  1.252000e+03   4.026151e-04 
  1.256000e+03   5.800967e-04 
  1.260000e+03   8.230074e-04 
  1.264000e+03   8.710817e-04 
  1.268000e+03   1.087615e-03 
  1.272000e+03   1.888268e-03 
  1.276000e+03   2.342929e-03 
  1.280000e+03   1.758252e-03 
  1.284000e+03   1.228094e-03 
  1.288000e+03   1.101913e-03 
  1.292000e+03   1.097912e-03 
  1.296000e+03   1.035768e-03 
  1.300000e+03   9.418656e-04 
  1.304000e+03   8.998269e-04 
  1.308000e+03   9.086792e-04 
  1.312000e+03   8.819526e-04 
  1.316000e+03   8.996821e-04 
  1.320000e+03   8.804738e-04 
  1.324000e+03   7.134854e-04 
  1.328000e+03   6.239581e-04 
  1.332000e+03   6.724373e-04 
  1.336000e+03   7.568143e-04 
  1.340000e+03   9.746637e-04 
  1.344000e+03   1.412410e-03 
  1.348000e+03   1.567210e-03 
  1.352000e+03   1.406832e-03 
  1.356000e+03   1.256953e-03 
  1.360000e+03   1.057980e-03 
  1.364000e+03   8.781055e-04 
  1.368000e+03   7.976994e-04 
  1.372000e+03   8.133791e-04 
  1.376000e+03   7.999098e-04 
  1.380000e+03   7.584984e-04 
  1.384000e+03   6.109395e-04 
  1.388000e+03   8.085447e-04 
  1.392000e+03   8.966832e-04 
  1.396000e+03   5.145332e-04 
  1.400000e+03   2.841465e-04 
  1.404000e+03   2.905364e-04 
  1.408000e+03   3.266312e-04 
  1.412000e+03   3.245547e-04 
  1.416000e+03   3.064491e-04 
  1.420000e+03   2.872256e-04 
  1.424000e+03   2.829157e-04 
  1.428000e+03   2.878574e-04 
  1.432000e+03   2.695083e-04 
  1.436000e+03   3.217173e-04 
  1.440000e+03   4.292347e-04 
  1.444000e+03   3.573491e-04 
  1.448000e+03   2.475668e-04 
  1.452000e+03   2.212184e-04 
  1.456000e+03   2.406285e-04 
  1.460000e+03   2.620217e-04 
  1.464000e+03   2.962915e-04 
  1.468000e+03   3.720818e-04 
  1.472000e+03   4.500354e-04 
  1.476000e+03   5.284339e-04 
  1.480000e+03   5.261205e-04 
  1.484000e+03   4.487620e-04 
  1.488000e+03   3.860405e-04 
  1.492000e+03   4.044702e-04 
  1.496000e+03   5.799229e-04 
  1.500000e+03   7.852606e-04 
  1.504000e+03   8.625710e-04 
  1.508000e+03   8.256896e-04 
  1.512000e+03   5.416390e-04 
  1.516000e+03   3.804522e-04 
  1.520000e+03   3.190181e-04 
  1.524000e+03   2.908575e-04 
  1.528000e+03   2.650699e-04 
  1.532000e+03   2.430196e-04 
  1.536000e+03   2.567343e-04 
  1.540000e+03   3.097616e-04 
  1.544000e+03   3.085136e-04 
  1.548000e+03   2.609363e-04 
  1.552000e+03   2.301585e-04 
  1.556000e+03   2.698446e-04 
  1.560000e+03   3.459568e-04 
  1.564000e+03   2.854760e-04 
  1.568000e+03   2.061625e-04 
  1.572000e+03   2.402892e-04 
  1.576000e+03   3.686609e-04 
  1.580000e+03   3.816454e-04 
  1.584000e+03   2.947912e-04 
  1.588000e+03   3.363753e-04 
  1.592000e+03   3.059294e-04 
  1.596000e+03   2.199514e-04 
  1.600000e+03   2.088792e-04 
