Input File: 02NSOUTH.78D
Measure Group: FFT
Measurement: FFT 1
Num of extracted Points: 801
Start Freq: -0 Hz
Span: 1.6 kHz
FFT Lines:  800 
Window: Hanning
Averaging Mode: RMS
Averaging Type: Linear / Fix Len
Number of Avg:  100
Overload reject: On

    X[Hz]      Vrms/Hz^(1/... 
  0.000000e+00   7.607496e-01 
  2.000000e+00   3.804064e-01 
  4.000000e+00   1.077973e-02 
  6.000000e+00   9.669573e-03 
  8.000000e+00   8.285878e-03 
  1.000000e+01   8.736272e-03 
  1.200000e+01   9.623945e-03 
  1.400000e+01   9.199979e-03 
  1.600000e+01   8.143814e-03 
  1.800000e+01   6.531678e-03 
  2.000000e+01   4.619513e-03 
  2.200000e+01   3.900866e-03 
  2.400000e+01   3.904611e-03 
  2.600000e+01   3.315912e-03 
  2.800000e+01   3.101759e-03 
  3.000000e+01   3.537771e-03 
  3.200000e+01   3.046857e-03 
  3.400000e+01   2.799066e-03 
  3.600000e+01   2.514066e-03 
  3.800000e+01   1.852908e-03 
  4.000000e+01   1.733586e-03 
  4.200000e+01   1.611919e-03 
  4.400000e+01   1.615246e-03 
  4.600000e+01   1.493491e-03 
  4.800000e+01   1.593628e-03 
  5.000000e+01   1.660684e-03 
  5.200000e+01   1.639073e-03 
  5.400000e+01   1.396421e-03 
  5.600000e+01   1.754201e-03 
  5.800000e+01   2.208866e-03 
  6.000000e+01   3.091855e-03 
  6.200000e+01   2.550390e-03 
  6.400000e+01   2.894563e-03 
  6.600000e+01   3.403682e-03 
  6.800000e+01   2.669662e-03 
  7.000000e+01   1.940309e-03 
  7.200000e+01   1.889687e-03 
  7.400000e+01   2.180829e-03 
  7.600000e+01   2.267018e-03 
  7.800000e+01   1.993436e-03 
  8.000000e+01   1.731317e-03 
  8.200000e+01   1.867962e-03 
  8.400000e+01   1.910735e-03 
  8.600000e+01   1.926532e-03 
  8.800000e+01   1.575788e-03 
  9.000000e+01   1.457246e-03 
  9.200000e+01   1.393226e-03 
  9.400000e+01   1.443875e-03 
  9.600000e+01   1.402056e-03 
  9.800000e+01   1.251581e-03 
  1.000000e+02   1.246119e-03 
  1.020000e+02   1.231634e-03 
  1.040000e+02   1.198216e-03 
  1.060000e+02   1.136267e-03 
  1.080000e+02   1.060468e-03 
  1.100000e+02   9.638020e-04 
  1.120000e+02   9.087026e-04 
  1.140000e+02   1.163537e-03 
  1.160000e+02   1.539765e-03 
  1.180000e+02   3.684080e-03 
  1.200000e+02   7.169800e-03 
  1.220000e+02   3.727117e-03 
  1.240000e+02   9.608400e-04 
  1.260000e+02   8.798119e-04 
  1.280000e+02   7.809066e-04 
  1.300000e+02   8.514647e-04 
  1.320000e+02   9.714738e-04 
  1.340000e+02   8.792412e-04 
  1.360000e+02   8.020530e-04 
  1.380000e+02   7.118307e-04 
  1.400000e+02   5.726456e-04 
  1.420000e+02   5.719111e-04 
  1.440000e+02   6.129532e-04 
  1.460000e+02   6.208086e-04 
  1.480000e+02   5.793223e-04 
  1.500000e+02   4.765029e-04 
  1.520000e+02   4.565585e-04 
  1.540000e+02   5.598398e-04 
  1.560000e+02   5.108847e-04 
  1.580000e+02   5.151779e-04 
  1.600000e+02   5.723577e-04 
  1.620000e+02   5.607430e-04 
  1.640000e+02   4.713281e-04 
  1.660000e+02   4.144023e-04 
  1.680000e+02   4.036094e-04 
  1.700000e+02   3.820921e-04 
  1.720000e+02   3.618010e-04 
  1.740000e+02   3.900540e-04 
  1.760000e+02   4.230897e-04 
  1.780000e+02   4.674825e-04 
  1.800000e+02   5.384069e-04 
  1.820000e+02   4.433722e-04 
  1.840000e+02   3.827488e-04 
  1.860000e+02   3.566495e-04 
  1.880000e+02   3.536377e-04 
  1.900000e+02   3.417552e-04 
  1.920000e+02   3.558444e-04 
  1.940000e+02   3.697411e-04 
  1.960000e+02   3.573214e-04 
  1.980000e+02   3.596402e-04 
  2.000000e+02   3.650068e-04 
  2.020000e+02   3.863004e-04 
  2.040000e+02   4.399011e-04 
  2.060000e+02   4.144630e-04 
  2.080000e+02   3.894844e-04 
  2.100000e+02   4.678984e-04 
  2.120000e+02   4.801162e-04 
  2.140000e+02   5.139812e-04 
  2.160000e+02   4.538347e-04 
  2.180000e+02   4.277916e-04 
  2.200000e+02   4.316746e-04 
  2.220000e+02   5.678551e-04 
  2.240000e+02   7.054026e-04 
  2.260000e+02   8.535675e-04 
  2.280000e+02   8.104452e-04 
  2.300000e+02   5.521385e-04 
  2.320000e+02   4.187735e-04 
  2.340000e+02   3.574436e-04 
  2.360000e+02   4.185961e-04 
  2.380000e+02   3.764606e-03 
  2.400000e+02   7.732227e-03 
  2.420000e+02   4.096941e-03 
  2.440000e+02   4.102826e-04 
  2.460000e+02   3.391712e-04 
  2.480000e+02   3.737887e-04 
  2.500000e+02   5.679116e-04 
  2.520000e+02   7.951420e-04 
  2.540000e+02   7.636262e-04 
  2.560000e+02   6.726851e-04 
  2.580000e+02   5.366276e-04 
  2.600000e+02   3.471169e-04 
  2.620000e+02   3.352980e-04 
  2.640000e+02   3.510909e-04 
  2.660000e+02   3.205033e-04 
  2.680000e+02   3.128909e-04 
  2.700000e+02   3.397514e-04 
  2.720000e+02   3.357926e-04 
  2.740000e+02   3.363559e-04 
  2.760000e+02   3.200921e-04 
  2.780000e+02   2.877483e-04 
  2.800000e+02   2.908432e-04 
  2.820000e+02   3.065774e-04 
  2.840000e+02   3.128084e-04 
  2.860000e+02   3.149316e-04 
  2.880000e+02   3.139066e-04 
  2.900000e+02   3.125035e-04 
  2.920000e+02   2.986994e-04 
  2.940000e+02   2.633800e-04 
  2.960000e+02   3.083404e-04 
  2.980000e+02   3.561093e-04 
  3.000000e+02   4.968363e-04 
  3.020000e+02   4.035017e-04 
  3.040000e+02   3.187921e-04 
  3.060000e+02   2.919055e-04 
  3.080000e+02   2.950292e-04 
  3.100000e+02   3.087357e-04 
  3.120000e+02   3.148685e-04 
  3.140000e+02   3.328374e-04 
  3.160000e+02   3.143170e-04 
  3.180000e+02   3.126008e-04 
  3.200000e+02   3.220360e-04 
  3.220000e+02   3.203028e-04 
  3.240000e+02   3.261132e-04 
  3.260000e+02   3.269772e-04 
  3.280000e+02   3.119582e-04 
  3.300000e+02   3.080074e-04 
  3.320000e+02   3.082477e-04 
  3.340000e+02   3.180241e-04 
  3.360000e+02   3.050851e-04 
  3.380000e+02   2.902309e-04 
  3.400000e+02   2.902906e-04 
  3.420000e+02   2.792553e-04 
  3.440000e+02   3.226342e-04 
  3.460000e+02   3.375214e-04 
  3.480000e+02   3.522410e-04 
  3.500000e+02   3.073696e-04 
  3.520000e+02   2.825400e-04 
  3.540000e+02   2.838711e-04 
  3.560000e+02   2.784185e-04 
  3.580000e+02   5.978177e-04 
  3.600000e+02   1.128701e-03 
  3.620000e+02   6.834227e-04 
  3.640000e+02   3.244520e-04 
  3.660000e+02   3.233936e-04 
  3.680000e+02   3.197073e-04 
  3.700000e+02   3.279794e-04 
  3.720000e+02   3.397504e-04 
  3.740000e+02   3.484491e-04 
  3.760000e+02   3.356981e-04 
  3.780000e+02   3.157048e-04 
  3.800000e+02   3.024781e-04 
  3.820000e+02   2.944314e-04 
  3.840000e+02   2.907105e-04 
  3.860000e+02   2.944972e-04 
  3.880000e+02   2.880976e-04 
  3.900000e+02   3.231831e-04 
  3.920000e+02   3.267484e-04 
  3.940000e+02   3.083324e-04 
  3.960000e+02   3.134617e-04 
  3.980000e+02   3.049326e-04 
  4.000000e+02   2.860656e-04 
  4.020000e+02   3.120817e-04 
  4.040000e+02   3.092476e-04 
  4.060000e+02   2.798860e-04 
  4.080000e+02   2.680446e-04 
  4.100000e+02   2.695338e-04 
  4.120000e+02   2.726926e-04 
  4.140000e+02   2.787855e-04 
  4.160000e+02   2.717586e-04 
  4.180000e+02   3.475699e-04 
  4.200000e+02   5.359189e-04 
  4.220000e+02   3.728326e-04 
  4.240000e+02   2.784547e-04 
  4.260000e+02   2.700195e-04 
  4.280000e+02   2.751895e-04 
  4.300000e+02   2.950864e-04 
  4.320000e+02   2.848488e-04 
  4.340000e+02   2.697504e-04 
  4.360000e+02   2.639820e-04 
  4.380000e+02   2.813762e-04 
  4.400000e+02   2.657486e-04 
  4.420000e+02   2.677887e-04 
  4.440000e+02   2.948217e-04 
  4.460000e+02   2.848031e-04 
  4.480000e+02   2.747073e-04 
  4.500000e+02   2.824547e-04 
  4.520000e+02   2.972581e-04 
  4.540000e+02   2.514781e-04 
  4.560000e+02   2.742163e-04 
  4.580000e+02   2.957659e-04 
  4.600000e+02   2.735839e-04 
  4.620000e+02   2.942839e-04 
  4.640000e+02   3.075956e-04 
  4.660000e+02   2.800143e-04 
  4.680000e+02   2.980944e-04 
  4.700000e+02   2.925663e-04 
  4.720000e+02   2.703186e-04 
  4.740000e+02   2.600180e-04 
  4.760000e+02   2.823896e-04 
  4.780000e+02   3.129234e-04 
  4.800000e+02   3.775336e-04 
  4.820000e+02   2.939934e-04 
  4.840000e+02   2.461876e-04 
  4.860000e+02   2.605524e-04 
  4.880000e+02   2.626771e-04 
  4.900000e+02   2.621195e-04 
  4.920000e+02   2.782708e-04 
  4.940000e+02   2.957689e-04 
  4.960000e+02   2.826053e-04 
  4.980000e+02   2.508840e-04 
  5.000000e+02   2.673775e-04 
  5.020000e+02   2.736774e-04 
  5.040000e+02   2.632711e-04 
  5.060000e+02   2.676066e-04 
  5.080000e+02   2.683166e-04 
  5.100000e+02   2.588342e-04 
  5.120000e+02   2.641272e-04 
  5.140000e+02   2.611247e-04 
  5.160000e+02   2.570219e-04 
  5.180000e+02   2.472718e-04 
  5.200000e+02   2.522169e-04 
  5.220000e+02   2.759580e-04 
  5.240000e+02   2.672651e-04 
  5.260000e+02   2.509999e-04 
  5.280000e+02   2.528802e-04 
  5.300000e+02   2.557838e-04 
  5.320000e+02   2.604335e-04 
  5.340000e+02   2.406266e-04 
  5.360000e+02   2.406983e-04 
  5.380000e+02   2.610633e-04 
  5.400000e+02   2.871615e-04 
  5.420000e+02   2.677738e-04 
  5.440000e+02   2.696471e-04 
  5.460000e+02   2.566129e-04 
  5.480000e+02   2.622307e-04 
  5.500000e+02   2.848016e-04 
  5.520000e+02   2.783143e-04 
  5.540000e+02   2.839742e-04 
  5.560000e+02   2.771695e-04 
  5.580000e+02   2.930203e-04 
  5.600000e+02   2.722800e-04 
  5.620000e+02   2.628227e-04 
  5.640000e+02   2.810288e-04 
  5.660000e+02   2.555603e-04 
  5.680000e+02   2.656569e-04 
  5.700000e+02   2.594861e-04 
  5.720000e+02   2.627263e-04 
  5.740000e+02   2.684280e-04 
  5.760000e+02   2.687637e-04 
  5.780000e+02   2.648922e-04 
  5.800000e+02   2.660162e-04 
  5.820000e+02   2.586292e-04 
  5.840000e+02   2.686873e-04 
  5.860000e+02   2.720815e-04 
  5.880000e+02   2.564380e-04 
  5.900000e+02   2.759771e-04 
  5.920000e+02   2.996403e-04 
  5.940000e+02   2.788370e-04 
  5.960000e+02   2.501302e-04 
  5.980000e+02   2.852601e-04 
  6.000000e+02   3.204551e-04 
  6.020000e+02   2.689490e-04 
  6.040000e+02   2.646907e-04 
  6.060000e+02   2.774712e-04 
  6.080000e+02   2.685145e-04 
  6.100000e+02   2.617798e-04 
  6.120000e+02   2.779036e-04 
  6.140000e+02   2.788828e-04 
  6.160000e+02   2.656779e-04 
  6.180000e+02   2.634500e-04 
  6.200000e+02   2.599674e-04 
  6.220000e+02   2.504618e-04 
  6.240000e+02   2.484891e-04 
  6.260000e+02   2.592735e-04 
  6.280000e+02   2.586453e-04 
  6.300000e+02   2.503343e-04 
  6.320000e+02   2.366889e-04 
  6.340000e+02   2.503612e-04 
  6.360000e+02   2.364127e-04 
  6.380000e+02   2.267340e-04 
  6.400000e+02   2.387667e-04 
  6.420000e+02   2.675872e-04 
  6.440000e+02   2.698220e-04 
  6.460000e+02   2.562815e-04 
  6.480000e+02   2.357251e-04 
  6.500000e+02   2.246430e-04 
  6.520000e+02   2.412357e-04 
  6.540000e+02   2.412538e-04 
  6.560000e+02   2.370469e-04 
  6.580000e+02   2.560428e-04 
  6.600000e+02   2.628877e-04 
  6.620000e+02   2.643352e-04 
  6.640000e+02   2.674800e-04 
  6.660000e+02   2.597467e-04 
  6.680000e+02   2.751471e-04 
  6.700000e+02   2.650221e-04 
  6.720000e+02   2.570971e-04 
  6.740000e+02   2.350055e-04 
  6.760000e+02   2.368188e-04 
  6.780000e+02   2.736433e-04 
  6.800000e+02   2.676065e-04 
  6.820000e+02   2.580736e-04 
  6.840000e+02   2.461348e-04 
  6.860000e+02   2.436752e-04 
  6.880000e+02   2.540982e-04 
  6.900000e+02   2.610608e-04 
  6.920000e+02   2.347232e-04 
  6.940000e+02   2.494559e-04 
  6.960000e+02   2.317501e-04 
  6.980000e+02   2.488763e-04 
  7.000000e+02   2.560926e-04 
  7.020000e+02   2.413241e-04 
  7.040000e+02   2.600870e-04 
  7.060000e+02   2.746270e-04 
  7.080000e+02   2.730597e-04 
  7.100000e+02   2.552468e-04 
  7.120000e+02   2.436232e-04 
  7.140000e+02   2.589725e-04 
  7.160000e+02   2.596215e-04 
  7.180000e+02   2.597343e-04 
  7.200000e+02   2.633346e-04 
  7.220000e+02   2.613218e-04 
  7.240000e+02   2.574409e-04 
  7.260000e+02   2.540462e-04 
  7.280000e+02   2.520557e-04 
  7.300000e+02   2.637531e-04 
  7.320000e+02   2.894782e-04 
  7.340000e+02   2.871514e-04 
  7.360000e+02   2.810766e-04 
  7.380000e+02   2.863163e-04 
  7.400000e+02   2.743113e-04 
  7.420000e+02   2.455872e-04 
  7.440000e+02   2.431836e-04 
  7.460000e+02   2.582888e-04 
  7.480000e+02   2.422073e-04 
  7.500000e+02   2.487142e-04 
  7.520000e+02   2.528713e-04 
  7.540000e+02   2.571146e-04 
  7.560000e+02   2.627817e-04 
  7.580000e+02   2.786933e-04 
  7.600000e+02   2.608506e-04 
  7.620000e+02   2.908093e-04 
  7.640000e+02   2.799915e-04 
  7.660000e+02   2.710662e-04 
  7.680000e+02   2.356578e-04 
  7.700000e+02   2.420914e-04 
  7.720000e+02   2.539956e-04 
  7.740000e+02   2.386112e-04 
  7.760000e+02   2.807605e-04 
  7.780000e+02   2.773982e-04 
  7.800000e+02   2.668357e-04 
  7.820000e+02   2.494063e-04 
  7.840000e+02   2.427655e-04 
  7.860000e+02   2.558494e-04 
  7.880000e+02   2.504565e-04 
  7.900000e+02   2.396884e-04 
  7.920000e+02   2.618000e-04 
  7.940000e+02   2.555781e-04 
  7.960000e+02   2.562335e-04 
  7.980000e+02   2.359459e-04 
  8.000000e+02   2.367992e-04 
  8.020000e+02   2.487559e-04 
  8.040000e+02   2.523511e-04 
  8.060000e+02   2.367747e-04 
  8.080000e+02   2.311998e-04 
  8.100000e+02   2.392894e-04 
  8.120000e+02   2.454368e-04 
  8.140000e+02   2.629094e-04 
  8.160000e+02   2.842611e-04 
  8.180000e+02   2.587965e-04 
  8.200000e+02   2.500256e-04 
  8.220000e+02   2.391222e-04 
  8.240000e+02   2.444349e-04 
  8.260000e+02   2.577791e-04 
  8.280000e+02   2.516327e-04 
  8.300000e+02   2.461438e-04 
  8.320000e+02   2.479501e-04 
  8.340000e+02   2.420628e-04 
  8.360000e+02   2.630489e-04 
  8.380000e+02   2.709024e-04 
  8.400000e+02   2.590872e-04 
  8.420000e+02   2.702170e-04 
  8.440000e+02   2.647371e-04 
  8.460000e+02   2.650933e-04 
  8.480000e+02   2.541577e-04 
  8.500000e+02   2.487126e-04 
  8.520000e+02   2.688769e-04 
  8.540000e+02   2.578294e-04 
  8.560000e+02   2.574547e-04 
  8.580000e+02   2.473211e-04 
  8.600000e+02   2.509766e-04 
  8.620000e+02   2.369939e-04 
  8.640000e+02   2.513016e-04 
  8.660000e+02   2.658199e-04 
  8.680000e+02   2.496144e-04 
  8.700000e+02   2.301636e-04 
  8.720000e+02   2.355031e-04 
  8.740000e+02   2.535796e-04 
  8.760000e+02   2.853157e-04 
  8.780000e+02   2.676378e-04 
  8.800000e+02   2.584440e-04 
  8.820000e+02   2.532463e-04 
  8.840000e+02   2.621918e-04 
  8.860000e+02   2.424508e-04 
  8.880000e+02   2.692501e-04 
  8.900000e+02   2.887321e-04 
  8.920000e+02   2.521367e-04 
  8.940000e+02   2.419236e-04 
  8.960000e+02   2.772027e-04 
  8.980000e+02   2.739702e-04 
  9.000000e+02   2.490896e-04 
  9.020000e+02   2.597768e-04 
  9.040000e+02   2.450891e-04 
  9.060000e+02   2.527612e-04 
  9.080000e+02   2.479727e-04 
  9.100000e+02   2.551995e-04 
  9.120000e+02   2.621374e-04 
  9.140000e+02   2.607456e-04 
  9.160000e+02   2.538559e-04 
  9.180000e+02   2.528011e-04 
  9.200000e+02   2.600361e-04 
  9.220000e+02   2.581976e-04 
  9.240000e+02   2.495081e-04 
  9.260000e+02   2.457523e-04 
  9.280000e+02   2.651677e-04 
  9.300000e+02   2.712150e-04 
  9.320000e+02   2.648633e-04 
  9.340000e+02   2.580484e-04 
  9.360000e+02   2.452670e-04 
  9.380000e+02   2.370857e-04 
  9.400000e+02   2.492417e-04 
  9.420000e+02   2.552230e-04 
  9.440000e+02   2.460236e-04 
  9.460000e+02   2.631059e-04 
  9.480000e+02   2.726767e-04 
  9.500000e+02   2.590189e-04 
  9.520000e+02   2.527773e-04 
  9.540000e+02   2.429769e-04 
  9.560000e+02   2.392524e-04 
  9.580000e+02   2.501157e-04 
  9.600000e+02   2.535773e-04 
  9.620000e+02   2.459758e-04 
  9.640000e+02   2.447062e-04 
  9.660000e+02   2.502213e-04 
  9.680000e+02   2.426848e-04 
  9.700000e+02   2.411842e-04 
  9.720000e+02   2.521610e-04 
  9.740000e+02   2.485292e-04 
  9.760000e+02   2.626703e-04 
  9.780000e+02   2.707992e-04 
  9.800000e+02   2.612114e-04 
  9.820000e+02   2.538994e-04 
  9.840000e+02   2.724823e-04 
  9.860000e+02   2.748550e-04 
  9.880000e+02   2.540620e-04 
  9.900000e+02   2.522837e-04 
  9.920000e+02   2.561132e-04 
  9.940000e+02   2.755887e-04 
  9.960000e+02   2.517535e-04 
  9.980000e+02   2.472907e-04 
  1.000000e+03   2.747613e-04 
  1.002000e+03   2.568240e-04 
  1.004000e+03   2.602833e-04 
  1.006000e+03   2.526035e-04 
  1.008000e+03   2.378501e-04 
  1.010000e+03   2.267322e-04 
  1.012000e+03   2.364279e-04 
  1.014000e+03   2.581338e-04 
  1.016000e+03   2.561988e-04 
  1.018000e+03   2.450274e-04 
  1.020000e+03   2.551427e-04 
  1.022000e+03   2.338570e-04 
  1.024000e+03   2.435792e-04 
  1.026000e+03   2.611571e-04 
  1.028000e+03   2.658706e-04 
  1.030000e+03   2.449564e-04 
  1.032000e+03   2.603007e-04 
  1.034000e+03   2.668342e-04 
  1.036000e+03   2.603576e-04 
  1.038000e+03   2.442844e-04 
  1.040000e+03   2.462611e-04 
  1.042000e+03   2.718981e-04 
  1.044000e+03   3.306762e-04 
  1.046000e+03   2.854056e-04 
  1.048000e+03   2.489067e-04 
  1.050000e+03   2.572567e-04 
  1.052000e+03   2.730057e-04 
  1.054000e+03   2.680960e-04 
  1.056000e+03   2.544129e-04 
  1.058000e+03   2.497009e-04 
  1.060000e+03   2.531489e-04 
  1.062000e+03   2.360691e-04 
  1.064000e+03   2.476832e-04 
  1.066000e+03   2.505870e-04 
  1.068000e+03   2.583904e-04 
  1.070000e+03   2.705138e-04 
  1.072000e+03   2.668423e-04 
  1.074000e+03   2.599023e-04 
  1.076000e+03   2.654052e-04 
  1.078000e+03   2.678621e-04 
  1.080000e+03   2.809068e-04 
  1.082000e+03   2.608167e-04 
  1.084000e+03   2.722989e-04 
  1.086000e+03   2.778204e-04 
  1.088000e+03   2.639462e-04 
  1.090000e+03   2.594940e-04 
  1.092000e+03   2.662854e-04 
  1.094000e+03   2.946392e-04 
  1.096000e+03   3.377950e-04 
  1.098000e+03   3.978229e-04 
  1.100000e+03   4.168992e-04 
  1.102000e+03   4.107855e-04 
  1.104000e+03   3.924714e-04 
  1.106000e+03   3.974793e-04 
  1.108000e+03   4.437727e-04 
  1.110000e+03   4.956328e-04 
  1.112000e+03   4.499284e-04 
  1.114000e+03   4.065431e-04 
  1.116000e+03   3.830308e-04 
  1.118000e+03   3.713093e-04 
  1.120000e+03   3.662881e-04 
  1.122000e+03   3.366325e-04 
  1.124000e+03   3.330569e-04 
  1.126000e+03   2.798220e-04 
  1.128000e+03   2.701470e-04 
  1.130000e+03   2.877034e-04 
  1.132000e+03   2.876456e-04 
  1.134000e+03   2.796564e-04 
  1.136000e+03   2.418550e-04 
  1.138000e+03   2.630502e-04 
  1.140000e+03   2.670245e-04 
  1.142000e+03   2.586301e-04 
  1.144000e+03   2.566299e-04 
  1.146000e+03   2.382504e-04 
  1.148000e+03   2.462241e-04 
  1.150000e+03   2.534367e-04 
  1.152000e+03   2.571531e-04 
  1.154000e+03   2.521216e-04 
  1.156000e+03   2.676341e-04 
  1.158000e+03   2.490604e-04 
  1.160000e+03   2.239494e-04 
  1.162000e+03   2.477708e-04 
  1.164000e+03   2.551551e-04 
  1.166000e+03   2.620940e-04 
  1.168000e+03   2.638351e-04 
  1.170000e+03   2.631949e-04 
  1.172000e+03   2.451832e-04 
  1.174000e+03   2.346154e-04 
  1.176000e+03   2.631588e-04 
  1.178000e+03   2.507102e-04 
  1.180000e+03   2.389021e-04 
  1.182000e+03   2.533681e-04 
  1.184000e+03   2.569490e-04 
  1.186000e+03   2.401561e-04 
  1.188000e+03   2.387208e-04 
  1.190000e+03   2.565050e-04 
  1.192000e+03   2.692033e-04 
  1.194000e+03   2.505473e-04 
  1.196000e+03   2.399585e-04 
  1.198000e+03   2.398900e-04 
  1.200000e+03   2.321540e-04 
  1.202000e+03   2.532388e-04 
  1.204000e+03   2.678474e-04 
  1.206000e+03   2.355744e-04 
  1.208000e+03   2.483515e-04 
  1.210000e+03   2.411439e-04 
  1.212000e+03   2.572242e-04 
  1.214000e+03   2.577564e-04 
  1.216000e+03   2.639324e-04 
  1.218000e+03   2.574284e-04 
  1.220000e+03   2.645177e-04 
  1.222000e+03   2.613042e-04 
  1.224000e+03   2.736831e-04 
  1.226000e+03   2.635151e-04 
  1.228000e+03   2.405833e-04 
  1.230000e+03   2.512794e-04 
  1.232000e+03   2.703123e-04 
  1.234000e+03   2.546904e-04 
  1.236000e+03   2.572486e-04 
  1.238000e+03   2.610158e-04 
  1.240000e+03   2.574919e-04 
  1.242000e+03   2.538097e-04 
  1.244000e+03   2.601877e-04 
  1.246000e+03   2.552496e-04 
  1.248000e+03   2.343907e-04 
  1.250000e+03   2.541220e-04 
  1.252000e+03   2.541381e-04 
  1.254000e+03   2.525323e-04 
  1.256000e+03   2.349940e-04 
  1.258000e+03   2.347050e-04 
  1.260000e+03   2.461740e-04 
  1.262000e+03   2.419262e-04 
  1.264000e+03   2.345031e-04 
  1.266000e+03   2.420127e-04 
  1.268000e+03   2.364264e-04 
  1.270000e+03   2.345361e-04 
  1.272000e+03   2.384299e-04 
  1.274000e+03   2.336262e-04 
  1.276000e+03   2.484055e-04 
  1.278000e+03   2.477379e-04 
  1.280000e+03   2.588375e-04 
  1.282000e+03   2.479271e-04 
  1.284000e+03   2.396011e-04 
  1.286000e+03   2.392702e-04 
  1.288000e+03   2.325668e-04 
  1.290000e+03   2.379395e-04 
  1.292000e+03   2.404288e-04 
  1.294000e+03   2.402698e-04 
  1.296000e+03   2.536973e-04 
  1.298000e+03   2.565188e-04 
  1.300000e+03   2.388945e-04 
  1.302000e+03   2.437169e-04 
  1.304000e+03   2.482509e-04 
  1.306000e+03   2.280907e-04 
  1.308000e+03   2.213425e-04 
  1.310000e+03   2.508672e-04 
  1.312000e+03   2.648867e-04 
  1.314000e+03   2.460082e-04 
  1.316000e+03   2.376945e-04 
  1.318000e+03   2.491352e-04 
  1.320000e+03   2.599610e-04 
  1.322000e+03   2.589659e-04 
  1.324000e+03   2.596420e-04 
  1.326000e+03   2.478602e-04 
  1.328000e+03   2.392062e-04 
  1.330000e+03   2.549982e-04 
  1.332000e+03   2.605867e-04 
  1.334000e+03   2.473063e-04 
  1.336000e+03   2.536804e-04 
  1.338000e+03   2.573952e-04 
  1.340000e+03   2.607805e-04 
  1.342000e+03   2.632546e-04 
  1.344000e+03   2.476040e-04 
  1.346000e+03   2.339470e-04 
  1.348000e+03   2.359389e-04 
  1.350000e+03   2.376157e-04 
  1.352000e+03   2.585509e-04 
  1.354000e+03   2.610557e-04 
  1.356000e+03   2.585459e-04 
  1.358000e+03   2.456567e-04 
  1.360000e+03   2.341041e-04 
  1.362000e+03   2.365780e-04 
  1.364000e+03   2.459135e-04 
  1.366000e+03   2.492913e-04 
  1.368000e+03   2.584113e-04 
  1.370000e+03   2.587412e-04 
  1.372000e+03   2.494347e-04 
  1.374000e+03   2.458401e-04 
  1.376000e+03   2.520730e-04 
  1.378000e+03   2.374925e-04 
  1.380000e+03   2.453927e-04 
  1.382000e+03   2.541714e-04 
  1.384000e+03   2.280278e-04 
  1.386000e+03   2.261889e-04 
  1.388000e+03   2.448969e-04 
  1.390000e+03   2.631315e-04 
  1.392000e+03   2.633095e-04 
  1.394000e+03   2.617045e-04 
  1.396000e+03   2.581504e-04 
  1.398000e+03   2.548499e-04 
  1.400000e+03   2.520227e-04 
  1.402000e+03   2.375502e-04 
  1.404000e+03   2.447626e-04 
  1.406000e+03   2.461058e-04 
  1.408000e+03   2.492180e-04 
  1.410000e+03   2.416307e-04 
  1.412000e+03   2.569158e-04 
  1.414000e+03   2.633420e-04 
  1.416000e+03   2.699459e-04 
  1.418000e+03   2.529419e-04 
  1.420000e+03   2.419795e-04 
  1.422000e+03   2.379440e-04 
  1.424000e+03   2.490353e-04 
  1.426000e+03   2.622888e-04 
  1.428000e+03   2.604412e-04 
  1.430000e+03   2.484039e-04 
  1.432000e+03   2.336819e-04 
  1.434000e+03   2.270430e-04 
  1.436000e+03   2.317738e-04 
  1.438000e+03   2.557438e-04 
  1.440000e+03   2.582144e-04 
  1.442000e+03   2.579315e-04 
  1.444000e+03   2.333867e-04 
  1.446000e+03   2.373252e-04 
  1.448000e+03   2.494495e-04 
  1.450000e+03   2.461512e-04 
  1.452000e+03   2.482420e-04 
  1.454000e+03   2.463433e-04 
  1.456000e+03   2.353052e-04 
  1.458000e+03   2.430463e-04 
  1.460000e+03   2.579946e-04 
  1.462000e+03   2.421806e-04 
  1.464000e+03   2.246051e-04 
  1.466000e+03   2.383731e-04 
  1.468000e+03   2.432291e-04 
  1.470000e+03   2.351553e-04 
  1.472000e+03   2.472616e-04 
  1.474000e+03   2.482549e-04 
  1.476000e+03   2.414972e-04 
  1.478000e+03   2.313551e-04 
  1.480000e+03   2.720901e-04 
  1.482000e+03   2.647618e-04 
  1.484000e+03   2.377208e-04 
  1.486000e+03   2.546092e-04 
  1.488000e+03   2.572679e-04 
  1.490000e+03   2.413778e-04 
  1.492000e+03   2.415144e-04 
  1.494000e+03   2.371440e-04 
  1.496000e+03   2.342187e-04 
  1.498000e+03   2.430398e-04 
  1.500000e+03   2.391492e-04 
  1.502000e+03   2.470893e-04 
  1.504000e+03   2.256765e-04 
  1.506000e+03   2.189356e-04 
  1.508000e+03   2.470792e-04 
  1.510000e+03   2.537387e-04 
  1.512000e+03   2.615896e-04 
  1.514000e+03   2.521756e-04 
  1.516000e+03   2.544364e-04 
  1.518000e+03   2.540337e-04 
  1.520000e+03   2.619928e-04 
  1.522000e+03   2.619312e-04 
  1.524000e+03   2.612697e-04 
  1.526000e+03   2.434614e-04 
  1.528000e+03   2.241923e-04 
  1.530000e+03   2.391946e-04 
  1.532000e+03   2.606232e-04 
  1.534000e+03   2.590154e-04 
  1.536000e+03   2.571278e-04 
  1.538000e+03   2.587395e-04 
  1.540000e+03   2.403817e-04 
  1.542000e+03   2.430854e-04 
  1.544000e+03   2.356563e-04 
  1.546000e+03   2.236067e-04 
  1.548000e+03   2.302364e-04 
  1.550000e+03   2.447012e-04 
  1.552000e+03   2.673221e-04 
  1.554000e+03   2.583090e-04 
  1.556000e+03   2.475801e-04 
  1.558000e+03   2.454851e-04 
  1.560000e+03   2.379731e-04 
  1.562000e+03   2.344781e-04 
  1.564000e+03   2.396948e-04 
  1.566000e+03   2.553221e-04 
  1.568000e+03   2.451965e-04 
  1.570000e+03   2.451644e-04 
  1.572000e+03   2.455820e-04 
  1.574000e+03   2.566619e-04 
  1.576000e+03   2.477227e-04 
  1.578000e+03   2.385496e-04 
  1.580000e+03   2.310357e-04 
  1.582000e+03   2.409374e-04 
  1.584000e+03   2.547560e-04 
  1.586000e+03   2.371743e-04 
  1.588000e+03   2.263609e-04 
  1.590000e+03   2.606464e-04 
  1.592000e+03   2.802402e-04 
  1.594000e+03   2.692140e-04 
  1.596000e+03   2.662696e-04 
  1.598000e+03   2.577998e-04 
  1.600000e+03   2.415524e-04 
