Input File: 02PD.78D
Measure Group: FFT
Measurement: FFT 1
Num of extracted Points: 801
Start Freq: -0 Hz
Span: 1.6 kHz
FFT Lines:  800 
Window: Hanning
Averaging Mode: RMS
Averaging Type: Exp. / Cont.
Number of Avg:   20
Overload reject: On

    X[Hz]      Vrms/Hz^(1/... 
  0.000000e+00   5.549584e-06 
  2.000000e+00   2.808035e-06 
  4.000000e+00   5.262251e-07 
  6.000000e+00   4.941232e-07 
  8.000000e+00   5.382402e-07 
  1.000000e+01   5.170299e-07 
  1.200000e+01   4.526786e-07 
  1.400000e+01   4.834980e-07 
  1.600000e+01   4.395563e-07 
  1.800000e+01   4.133649e-07 
  2.000000e+01   4.701562e-07 
  2.200000e+01   5.076262e-07 
  2.400000e+01   5.049028e-07 
  2.600000e+01   4.510607e-07 
  2.800000e+01   5.098439e-07 
  3.000000e+01   4.822033e-07 
  3.200000e+01   4.103508e-07 
  3.400000e+01   4.131838e-07 
  3.600000e+01   4.431079e-07 
  3.800000e+01   4.387306e-07 
  4.000000e+01   4.345101e-07 
  4.200000e+01   4.442524e-07 
  4.400000e+01   4.935265e-07 
  4.600000e+01   4.865768e-07 
  4.800000e+01   4.052141e-07 
  5.000000e+01   4.404439e-07 
  5.200000e+01   6.130836e-07 
  5.400000e+01   7.307704e-07 
  5.600000e+01   4.331368e-07 
  5.800000e+01   1.084709e-06 
  6.000000e+01   2.044011e-06 
  6.200000e+01   1.103573e-06 
  6.400000e+01   4.243429e-07 
  6.600000e+01   4.524574e-07 
  6.800000e+01   4.988677e-07 
  7.000000e+01   5.642846e-07 
  7.200000e+01   4.536173e-07 
  7.400000e+01   4.029286e-07 
  7.600000e+01   3.892364e-07 
  7.800000e+01   3.853534e-07 
  8.000000e+01   4.338322e-07 
  8.200000e+01   4.025249e-07 
  8.400000e+01   4.468107e-07 
  8.600000e+01   4.282641e-07 
  8.800000e+01   4.273788e-07 
  9.000000e+01   4.850183e-07 
  9.200000e+01   4.803770e-07 
  9.400000e+01   4.280128e-07 
  9.600000e+01   5.609261e-07 
  9.800000e+01   5.145399e-07 
  1.000000e+02   4.536145e-07 
  1.020000e+02   3.995295e-07 
  1.040000e+02   3.830628e-07 
  1.060000e+02   4.995111e-07 
  1.080000e+02   5.271463e-07 
  1.100000e+02   5.404568e-07 
  1.120000e+02   5.456562e-07 
  1.140000e+02   5.051936e-07 
  1.160000e+02   5.201621e-07 
  1.180000e+02   1.015424e-06 
  1.200000e+02   1.820853e-06 
  1.220000e+02   1.017144e-06 
  1.240000e+02   5.166366e-07 
  1.260000e+02   5.284729e-07 
  1.280000e+02   4.827380e-07 
  1.300000e+02   4.806287e-07 
  1.320000e+02   4.849549e-07 
  1.340000e+02   4.441795e-07 
  1.360000e+02   5.045773e-07 
  1.380000e+02   3.893282e-07 
  1.400000e+02   3.958166e-07 
  1.420000e+02   4.606117e-07 
  1.440000e+02   4.499256e-07 
  1.460000e+02   4.645075e-07 
  1.480000e+02   4.728801e-07 
  1.500000e+02   5.117697e-07 
  1.520000e+02   4.927758e-07 
  1.540000e+02   4.315717e-07 
  1.560000e+02   3.877831e-07 
  1.580000e+02   3.701448e-07 
  1.600000e+02   4.342600e-07 
  1.620000e+02   4.173713e-07 
  1.640000e+02   3.613132e-07 
  1.660000e+02   3.389622e-07 
  1.680000e+02   4.147309e-07 
  1.700000e+02   4.778144e-07 
  1.720000e+02   4.536693e-07 
  1.740000e+02   5.799606e-07 
  1.760000e+02   5.076305e-07 
  1.780000e+02   6.876417e-07 
  1.800000e+02   1.306008e-06 
  1.820000e+02   7.203257e-07 
  1.840000e+02   3.857942e-07 
  1.860000e+02   4.001335e-07 
  1.880000e+02   4.136363e-07 
  1.900000e+02   4.482959e-07 
  1.920000e+02   4.687907e-07 
  1.940000e+02   4.253156e-07 
  1.960000e+02   4.221157e-07 
  1.980000e+02   4.443380e-07 
  2.000000e+02   4.270779e-07 
  2.020000e+02   4.477216e-07 
  2.040000e+02   5.440327e-07 
  2.060000e+02   5.082835e-07 
  2.080000e+02   4.551952e-07 
  2.100000e+02   4.411124e-07 
  2.120000e+02   4.828833e-07 
  2.140000e+02   4.508527e-07 
  2.160000e+02   4.234771e-07 
  2.180000e+02   4.425697e-07 
  2.200000e+02   4.803205e-07 
  2.220000e+02   4.300918e-07 
  2.240000e+02   4.489777e-07 
  2.260000e+02   4.270345e-07 
  2.280000e+02   4.482865e-07 
  2.300000e+02   4.409678e-07 
  2.320000e+02   4.339042e-07 
  2.340000e+02   4.502326e-07 
  2.360000e+02   4.966591e-07 
  2.380000e+02   5.509918e-07 
  2.400000e+02   5.421557e-07 
  2.420000e+02   4.532851e-07 
  2.440000e+02   4.412789e-07 
  2.460000e+02   4.773179e-07 
  2.480000e+02   4.388712e-07 
  2.500000e+02   4.240381e-07 
  2.520000e+02   4.372570e-07 
  2.540000e+02   4.042610e-07 
  2.560000e+02   4.563204e-07 
  2.580000e+02   4.651293e-07 
  2.600000e+02   4.620991e-07 
  2.620000e+02   4.127989e-07 
  2.640000e+02   4.081540e-07 
  2.660000e+02   5.051170e-07 
  2.680000e+02   5.463733e-07 
  2.700000e+02   4.723758e-07 
  2.720000e+02   4.599035e-07 
  2.740000e+02   4.200036e-07 
  2.760000e+02   4.190560e-07 
  2.780000e+02   4.574786e-07 
  2.800000e+02   4.376177e-07 
  2.820000e+02   4.156297e-07 
  2.840000e+02   5.005314e-07 
  2.860000e+02   4.079977e-07 
  2.880000e+02   4.252367e-07 
  2.900000e+02   4.671809e-07 
  2.920000e+02   4.375088e-07 
  2.940000e+02   4.360988e-07 
  2.960000e+02   4.516837e-07 
  2.980000e+02   5.115890e-07 
  3.000000e+02   8.322278e-07 
  3.020000e+02   4.949699e-07 
  3.040000e+02   4.471489e-07 
  3.060000e+02   4.703784e-07 
  3.080000e+02   4.196935e-07 
  3.100000e+02   4.316415e-07 
  3.120000e+02   4.003629e-07 
  3.140000e+02   4.210769e-07 
  3.160000e+02   4.436497e-07 
  3.180000e+02   4.605549e-07 
  3.200000e+02   4.746711e-07 
  3.220000e+02   4.927438e-07 
  3.240000e+02   4.584950e-07 
  3.260000e+02   4.296134e-07 
  3.280000e+02   4.085643e-07 
  3.300000e+02   3.786036e-07 
  3.320000e+02   4.261161e-07 
  3.340000e+02   4.443353e-07 
  3.360000e+02   4.024683e-07 
  3.380000e+02   4.283294e-07 
  3.400000e+02   4.194314e-07 
  3.420000e+02   4.456029e-07 
  3.440000e+02   5.032574e-07 
  3.460000e+02   4.688937e-07 
  3.480000e+02   4.852616e-07 
  3.500000e+02   4.827410e-07 
  3.520000e+02   4.759180e-07 
  3.540000e+02   4.937957e-07 
  3.560000e+02   4.480976e-07 
  3.580000e+02   4.669166e-07 
  3.600000e+02   5.112537e-07 
  3.620000e+02   5.066519e-07 
  3.640000e+02   4.144079e-07 
  3.660000e+02   4.280647e-07 
  3.680000e+02   4.000417e-07 
  3.700000e+02   4.629317e-07 
  3.720000e+02   5.174401e-07 
  3.740000e+02   4.513674e-07 
  3.760000e+02   3.707205e-07 
  3.780000e+02   3.731022e-07 
  3.800000e+02   4.196956e-07 
  3.820000e+02   4.011942e-07 
  3.840000e+02   4.564670e-07 
  3.860000e+02   5.343351e-07 
  3.880000e+02   4.942364e-07 
  3.900000e+02   4.826039e-07 
  3.920000e+02   4.508350e-07 
  3.940000e+02   5.405150e-07 
  3.960000e+02   5.184488e-07 
  3.980000e+02   5.214801e-07 
  4.000000e+02   4.882841e-07 
  4.020000e+02   4.477174e-07 
  4.040000e+02   4.212669e-07 
  4.060000e+02   4.759007e-07 
  4.080000e+02   5.068783e-07 
  4.100000e+02   5.277021e-07 
  4.120000e+02   4.479493e-07 
  4.140000e+02   3.856654e-07 
  4.160000e+02   4.546004e-07 
  4.180000e+02   6.775884e-07 
  4.200000e+02   9.887195e-07 
  4.220000e+02   6.110134e-07 
  4.240000e+02   3.340182e-07 
  4.260000e+02   4.347633e-07 
  4.280000e+02   4.386312e-07 
  4.300000e+02   4.275775e-07 
  4.320000e+02   4.547954e-07 
  4.340000e+02   4.260903e-07 
  4.360000e+02   4.256154e-07 
  4.380000e+02   3.965568e-07 
  4.400000e+02   4.101305e-07 
  4.420000e+02   4.140165e-07 
  4.440000e+02   3.918199e-07 
  4.460000e+02   3.726344e-07 
  4.480000e+02   3.628245e-07 
  4.500000e+02   3.837207e-07 
  4.520000e+02   3.751559e-07 
  4.540000e+02   4.043465e-07 
  4.560000e+02   3.913062e-07 
  4.580000e+02   3.617251e-07 
  4.600000e+02   3.967393e-07 
  4.620000e+02   4.212785e-07 
  4.640000e+02   3.947226e-07 
  4.660000e+02   4.266991e-07 
  4.680000e+02   4.307492e-07 
  4.700000e+02   4.365935e-07 
  4.720000e+02   4.142166e-07 
  4.740000e+02   3.785319e-07 
  4.760000e+02   4.053999e-07 
  4.780000e+02   4.243805e-07 
  4.800000e+02   4.299815e-07 
  4.820000e+02   4.201925e-07 
  4.840000e+02   3.877565e-07 
  4.860000e+02   4.020951e-07 
  4.880000e+02   4.276484e-07 
  4.900000e+02   4.185864e-07 
  4.920000e+02   3.397897e-07 
  4.940000e+02   3.730858e-07 
  4.960000e+02   3.858275e-07 
  4.980000e+02   4.458390e-07 
  5.000000e+02   5.059120e-07 
  5.020000e+02   5.105128e-07 
  5.040000e+02   4.818128e-07 
  5.060000e+02   4.544366e-07 
  5.080000e+02   4.411979e-07 
  5.100000e+02   4.036933e-07 
  5.120000e+02   5.310989e-07 
  5.140000e+02   4.392610e-07 
  5.160000e+02   4.980933e-07 
  5.180000e+02   4.166122e-07 
  5.200000e+02   4.428734e-07 
  5.220000e+02   4.350796e-07 
  5.240000e+02   3.932020e-07 
  5.260000e+02   4.407466e-07 
  5.280000e+02   4.621057e-07 
  5.300000e+02   4.574041e-07 
  5.320000e+02   4.661218e-07 
  5.340000e+02   3.982876e-07 
  5.360000e+02   3.924552e-07 
  5.380000e+02   4.724781e-07 
  5.400000e+02   4.579594e-07 
  5.420000e+02   4.732392e-07 
  5.440000e+02   4.783172e-07 
  5.460000e+02   4.279966e-07 
  5.480000e+02   3.939064e-07 
  5.500000e+02   4.221781e-07 
  5.520000e+02   5.039439e-07 
  5.540000e+02   4.816378e-07 
  5.560000e+02   4.938963e-07 
  5.580000e+02   4.716183e-07 
  5.600000e+02   4.397647e-07 
  5.620000e+02   3.468983e-07 
  5.640000e+02   4.131762e-07 
  5.660000e+02   4.287454e-07 
  5.680000e+02   3.869357e-07 
  5.700000e+02   4.478997e-07 
  5.720000e+02   4.086709e-07 
  5.740000e+02   3.641339e-07 
  5.760000e+02   3.834690e-07 
  5.780000e+02   3.849194e-07 
  5.800000e+02   4.190030e-07 
  5.820000e+02   3.733259e-07 
  5.840000e+02   4.190527e-07 
  5.860000e+02   3.718442e-07 
  5.880000e+02   4.182669e-07 
  5.900000e+02   4.215412e-07 
  5.920000e+02   4.492009e-07 
  5.940000e+02   3.782661e-07 
  5.960000e+02   3.563560e-07 
  5.980000e+02   4.125571e-07 
  6.000000e+02   4.020984e-07 
  6.020000e+02   3.872825e-07 
  6.040000e+02   4.448618e-07 
  6.060000e+02   4.595989e-07 
  6.080000e+02   4.604361e-07 
  6.100000e+02   3.993406e-07 
  6.120000e+02   3.591337e-07 
  6.140000e+02   3.895727e-07 
  6.160000e+02   4.316094e-07 
  6.180000e+02   4.274590e-07 
  6.200000e+02   4.316511e-07 
  6.220000e+02   3.985140e-07 
  6.240000e+02   4.146489e-07 
  6.260000e+02   4.269937e-07 
  6.280000e+02   4.702769e-07 
  6.300000e+02   4.713349e-07 
  6.320000e+02   4.143782e-07 
  6.340000e+02   4.000703e-07 
  6.360000e+02   3.089837e-07 
  6.380000e+02   3.446110e-07 
  6.400000e+02   4.092144e-07 
  6.420000e+02   3.651054e-07 
  6.440000e+02   4.239829e-07 
  6.460000e+02   4.458245e-07 
  6.480000e+02   3.484261e-07 
  6.500000e+02   4.515825e-07 
  6.520000e+02   4.198932e-07 
  6.540000e+02   4.124392e-07 
  6.560000e+02   4.363170e-07 
  6.580000e+02   4.077186e-07 
  6.600000e+02   4.162264e-07 
  6.620000e+02   4.256856e-07 
  6.640000e+02   4.496816e-07 
  6.660000e+02   4.468350e-07 
  6.680000e+02   4.777460e-07 
  6.700000e+02   4.775898e-07 
  6.720000e+02   4.004031e-07 
  6.740000e+02   4.009549e-07 
  6.760000e+02   3.452961e-07 
  6.780000e+02   3.876066e-07 
  6.800000e+02   4.911023e-07 
  6.820000e+02   3.775662e-07 
  6.840000e+02   4.263988e-07 
  6.860000e+02   4.207756e-07 
  6.880000e+02   4.127513e-07 
  6.900000e+02   3.858617e-07 
  6.920000e+02   3.803781e-07 
  6.940000e+02   4.402313e-07 
  6.960000e+02   4.492648e-07 
  6.980000e+02   4.498123e-07 
  7.000000e+02   4.102635e-07 
  7.020000e+02   4.029052e-07 
  7.040000e+02   3.855811e-07 
  7.060000e+02   3.803436e-07 
  7.080000e+02   3.789843e-07 
  7.100000e+02   3.915499e-07 
  7.120000e+02   3.910033e-07 
  7.140000e+02   3.991735e-07 
  7.160000e+02   4.042858e-07 
  7.180000e+02   4.759381e-07 
  7.200000e+02   4.299542e-07 
  7.220000e+02   3.956920e-07 
  7.240000e+02   4.465734e-07 
  7.260000e+02   4.644220e-07 
  7.280000e+02   4.430684e-07 
  7.300000e+02   4.731436e-07 
  7.320000e+02   3.693422e-07 
  7.340000e+02   4.116334e-07 
  7.360000e+02   4.316150e-07 
  7.380000e+02   4.097309e-07 
  7.400000e+02   4.546092e-07 
  7.420000e+02   3.960633e-07 
  7.440000e+02   4.040736e-07 
  7.460000e+02   3.593733e-07 
  7.480000e+02   3.928542e-07 
  7.500000e+02   4.265383e-07 
  7.520000e+02   3.989456e-07 
  7.540000e+02   4.117258e-07 
  7.560000e+02   4.367699e-07 
  7.580000e+02   3.648029e-07 
  7.600000e+02   4.205649e-07 
  7.620000e+02   4.181817e-07 
  7.640000e+02   4.432733e-07 
  7.660000e+02   3.805361e-07 
  7.680000e+02   3.599470e-07 
  7.700000e+02   3.990986e-07 
  7.720000e+02   4.176889e-07 
  7.740000e+02   4.194223e-07 
  7.760000e+02   4.537235e-07 
  7.780000e+02   4.997614e-07 
  7.800000e+02   5.235525e-07 
  7.820000e+02   4.401942e-07 
  7.840000e+02   3.894324e-07 
  7.860000e+02   3.898029e-07 
  7.880000e+02   4.797693e-07 
  7.900000e+02   4.514856e-07 
  7.920000e+02   4.346767e-07 
  7.940000e+02   4.468723e-07 
  7.960000e+02   4.070897e-07 
  7.980000e+02   4.243711e-07 
  8.000000e+02   3.985721e-07 
  8.020000e+02   4.337131e-07 
  8.040000e+02   4.665362e-07 
  8.060000e+02   4.061197e-07 
  8.080000e+02   3.623104e-07 
  8.100000e+02   3.883899e-07 
  8.120000e+02   4.379012e-07 
  8.140000e+02   5.254378e-07 
  8.160000e+02   4.953630e-07 
  8.180000e+02   5.310742e-07 
  8.200000e+02   5.432978e-07 
  8.220000e+02   4.911055e-07 
  8.240000e+02   3.879042e-07 
  8.260000e+02   4.214014e-07 
  8.280000e+02   4.963994e-07 
  8.300000e+02   3.610458e-07 
  8.320000e+02   3.726512e-07 
  8.340000e+02   3.689361e-07 
  8.360000e+02   3.845777e-07 
  8.380000e+02   4.286800e-07 
  8.400000e+02   4.494651e-07 
  8.420000e+02   4.298479e-07 
  8.440000e+02   3.538713e-07 
  8.460000e+02   3.338827e-07 
  8.480000e+02   3.670190e-07 
  8.500000e+02   4.333274e-07 
  8.520000e+02   3.855730e-07 
  8.540000e+02   4.354254e-07 
  8.560000e+02   4.626307e-07 
  8.580000e+02   4.357059e-07 
  8.600000e+02   4.452485e-07 
  8.620000e+02   4.065188e-07 
  8.640000e+02   4.208131e-07 
  8.660000e+02   4.508057e-07 
  8.680000e+02   4.383226e-07 
  8.700000e+02   4.089128e-07 
  8.720000e+02   4.088090e-07 
  8.740000e+02   4.100547e-07 
  8.760000e+02   3.786759e-07 
  8.780000e+02   4.342147e-07 
  8.800000e+02   4.098589e-07 
  8.820000e+02   3.726127e-07 
  8.840000e+02   3.991812e-07 
  8.860000e+02   3.872232e-07 
  8.880000e+02   4.227259e-07 
  8.900000e+02   4.305466e-07 
  8.920000e+02   4.063454e-07 
  8.940000e+02   4.159656e-07 
  8.960000e+02   4.524978e-07 
  8.980000e+02   3.930258e-07 
  9.000000e+02   4.232214e-07 
  9.020000e+02   4.404834e-07 
  9.040000e+02   4.056971e-07 
  9.060000e+02   3.840499e-07 
  9.080000e+02   3.840454e-07 
  9.100000e+02   3.738764e-07 
  9.120000e+02   3.858896e-07 
  9.140000e+02   4.200713e-07 
  9.160000e+02   4.053306e-07 
  9.180000e+02   4.436025e-07 
  9.200000e+02   4.871366e-07 
  9.220000e+02   5.300109e-07 
  9.240000e+02   4.261676e-07 
  9.260000e+02   4.057393e-07 
  9.280000e+02   4.344835e-07 
  9.300000e+02   4.352257e-07 
  9.320000e+02   3.925715e-07 
  9.340000e+02   3.326180e-07 
  9.360000e+02   3.285983e-07 
  9.380000e+02   3.943493e-07 
  9.400000e+02   4.227215e-07 
  9.420000e+02   3.185934e-07 
  9.440000e+02   3.426232e-07 
  9.460000e+02   3.153477e-07 
  9.480000e+02   3.615663e-07 
  9.500000e+02   3.624892e-07 
  9.520000e+02   3.857278e-07 
  9.540000e+02   3.976442e-07 
  9.560000e+02   3.921429e-07 
  9.580000e+02   3.792319e-07 
  9.600000e+02   4.576163e-07 
  9.620000e+02   4.643398e-07 
  9.640000e+02   3.871433e-07 
  9.660000e+02   3.868057e-07 
  9.680000e+02   3.893664e-07 
  9.700000e+02   4.449582e-07 
  9.720000e+02   4.459706e-07 
  9.740000e+02   3.851191e-07 
  9.760000e+02   3.948826e-07 
  9.780000e+02   3.956531e-07 
  9.800000e+02   3.868681e-07 
  9.820000e+02   3.255336e-07 
  9.840000e+02   3.191152e-07 
  9.860000e+02   3.935387e-07 
  9.880000e+02   4.523599e-07 
  9.900000e+02   3.945716e-07 
  9.920000e+02   3.768194e-07 
  9.940000e+02   3.917779e-07 
  9.960000e+02   3.875380e-07 
  9.980000e+02   4.267724e-07 
  1.000000e+03   4.725693e-07 
  1.002000e+03   4.990073e-07 
  1.004000e+03   4.518646e-07 
  1.006000e+03   4.118561e-07 
  1.008000e+03   3.656619e-07 
  1.010000e+03   3.643256e-07 
  1.012000e+03   3.864009e-07 
  1.014000e+03   4.193998e-07 
  1.016000e+03   4.787061e-07 
  1.018000e+03   4.704695e-07 
  1.020000e+03   4.835721e-07 
  1.022000e+03   4.615203e-07 
  1.024000e+03   4.269663e-07 
  1.026000e+03   4.145064e-07 
  1.028000e+03   4.077715e-07 
  1.030000e+03   3.717889e-07 
  1.032000e+03   4.518742e-07 
  1.034000e+03   4.615457e-07 
  1.036000e+03   3.696669e-07 
  1.038000e+03   3.488204e-07 
  1.040000e+03   4.321532e-07 
  1.042000e+03   4.692573e-07 
  1.044000e+03   4.403506e-07 
  1.046000e+03   4.067161e-07 
  1.048000e+03   4.300364e-07 
  1.050000e+03   5.021685e-07 
  1.052000e+03   3.891128e-07 
  1.054000e+03   3.614119e-07 
  1.056000e+03   3.755443e-07 
  1.058000e+03   4.080740e-07 
  1.060000e+03   3.756992e-07 
  1.062000e+03   3.888954e-07 
  1.064000e+03   4.081115e-07 
  1.066000e+03   3.586566e-07 
  1.068000e+03   3.702796e-07 
  1.070000e+03   4.656911e-07 
  1.072000e+03   4.586533e-07 
  1.074000e+03   3.515176e-07 
  1.076000e+03   3.631965e-07 
  1.078000e+03   4.122308e-07 
  1.080000e+03   4.525377e-07 
  1.082000e+03   3.733059e-07 
  1.084000e+03   4.239383e-07 
  1.086000e+03   4.038015e-07 
  1.088000e+03   4.109021e-07 
  1.090000e+03   3.921691e-07 
  1.092000e+03   3.918089e-07 
  1.094000e+03   3.939767e-07 
  1.096000e+03   4.225797e-07 
  1.098000e+03   3.959739e-07 
  1.100000e+03   3.601924e-07 
  1.102000e+03   3.878450e-07 
  1.104000e+03   3.911409e-07 
  1.106000e+03   3.759460e-07 
  1.108000e+03   3.908195e-07 
  1.110000e+03   3.480719e-07 
  1.112000e+03   3.350341e-07 
  1.114000e+03   3.782226e-07 
  1.116000e+03   3.886951e-07 
  1.118000e+03   4.134386e-07 
  1.120000e+03   3.840115e-07 
  1.122000e+03   3.845619e-07 
  1.124000e+03   3.954046e-07 
  1.126000e+03   4.042200e-07 
  1.128000e+03   4.498587e-07 
  1.130000e+03   3.805756e-07 
  1.132000e+03   4.110481e-07 
  1.134000e+03   4.741050e-07 
  1.136000e+03   4.436838e-07 
  1.138000e+03   4.298939e-07 
  1.140000e+03   4.090538e-07 
  1.142000e+03   3.319052e-07 
  1.144000e+03   3.911749e-07 
  1.146000e+03   4.185840e-07 
  1.148000e+03   3.867393e-07 
  1.150000e+03   3.446848e-07 
  1.152000e+03   3.862824e-07 
  1.154000e+03   3.878914e-07 
  1.156000e+03   3.917584e-07 
  1.158000e+03   4.392292e-07 
  1.160000e+03   4.818734e-07 
  1.162000e+03   5.221425e-07 
  1.164000e+03   5.016009e-07 
  1.166000e+03   4.422357e-07 
  1.168000e+03   4.385931e-07 
  1.170000e+03   3.866810e-07 
  1.172000e+03   4.348672e-07 
  1.174000e+03   4.497913e-07 
  1.176000e+03   4.313362e-07 
  1.178000e+03   4.492975e-07 
  1.180000e+03   4.656460e-07 
  1.182000e+03   4.414474e-07 
  1.184000e+03   4.032865e-07 
  1.186000e+03   4.971200e-07 
  1.188000e+03   4.712244e-07 
  1.190000e+03   4.277285e-07 
  1.192000e+03   4.390610e-07 
  1.194000e+03   4.730052e-07 
  1.196000e+03   4.590455e-07 
  1.198000e+03   4.046764e-07 
  1.200000e+03   3.910380e-07 
  1.202000e+03   4.204161e-07 
  1.204000e+03   4.744711e-07 
  1.206000e+03   4.664085e-07 
  1.208000e+03   4.154087e-07 
  1.210000e+03   4.321120e-07 
  1.212000e+03   3.932880e-07 
  1.214000e+03   3.975511e-07 
  1.216000e+03   4.390141e-07 
  1.218000e+03   4.268753e-07 
  1.220000e+03   4.543578e-07 
  1.222000e+03   3.970755e-07 
  1.224000e+03   3.879553e-07 
  1.226000e+03   3.627118e-07 
  1.228000e+03   3.775584e-07 
  1.230000e+03   3.373846e-07 
  1.232000e+03   4.023345e-07 
  1.234000e+03   4.364373e-07 
  1.236000e+03   4.200127e-07 
  1.238000e+03   4.495440e-07 
  1.240000e+03   4.541315e-07 
  1.242000e+03   4.026712e-07 
  1.244000e+03   3.591343e-07 
  1.246000e+03   3.613317e-07 
  1.248000e+03   4.070814e-07 
  1.250000e+03   3.998303e-07 
  1.252000e+03   4.112191e-07 
  1.254000e+03   4.188241e-07 
  1.256000e+03   4.036218e-07 
  1.258000e+03   4.029907e-07 
  1.260000e+03   3.918198e-07 
  1.262000e+03   3.947548e-07 
  1.264000e+03   3.766699e-07 
  1.266000e+03   4.421551e-07 
  1.268000e+03   4.763353e-07 
  1.270000e+03   4.001062e-07 
  1.272000e+03   3.823070e-07 
  1.274000e+03   3.895061e-07 
  1.276000e+03   3.467289e-07 
  1.278000e+03   3.038480e-07 
  1.280000e+03   4.008743e-07 
  1.282000e+03   4.587392e-07 
  1.284000e+03   4.578962e-07 
  1.286000e+03   4.473952e-07 
  1.288000e+03   3.741234e-07 
  1.290000e+03   3.784664e-07 
  1.292000e+03   3.629758e-07 
  1.294000e+03   3.731784e-07 
  1.296000e+03   3.811178e-07 
  1.298000e+03   4.416655e-07 
  1.300000e+03   4.466946e-07 
  1.302000e+03   3.767570e-07 
  1.304000e+03   3.935910e-07 
  1.306000e+03   4.372685e-07 
  1.308000e+03   4.957163e-07 
  1.310000e+03   4.785184e-07 
  1.312000e+03   4.057773e-07 
  1.314000e+03   4.318867e-07 
  1.316000e+03   4.799099e-07 
  1.318000e+03   4.853258e-07 
  1.320000e+03   5.175954e-07 
  1.322000e+03   4.855353e-07 
  1.324000e+03   4.688625e-07 
  1.326000e+03   4.204451e-07 
  1.328000e+03   4.516635e-07 
  1.330000e+03   4.412721e-07 
  1.332000e+03   4.298516e-07 
  1.334000e+03   4.562155e-07 
  1.336000e+03   4.179146e-07 
  1.338000e+03   4.222133e-07 
  1.340000e+03   4.494616e-07 
  1.342000e+03   4.559172e-07 
  1.344000e+03   3.990277e-07 
  1.346000e+03   4.383473e-07 
  1.348000e+03   4.372859e-07 
  1.350000e+03   4.078698e-07 
  1.352000e+03   3.748715e-07 
  1.354000e+03   4.206283e-07 
  1.356000e+03   3.643378e-07 
  1.358000e+03   3.516765e-07 
  1.360000e+03   3.777441e-07 
  1.362000e+03   4.300989e-07 
  1.364000e+03   4.355875e-07 
  1.366000e+03   4.095723e-07 
  1.368000e+03   3.865916e-07 
  1.370000e+03   4.289669e-07 
  1.372000e+03   4.141064e-07 
  1.374000e+03   4.161628e-07 
  1.376000e+03   4.566319e-07 
  1.378000e+03   4.489033e-07 
  1.380000e+03   3.970323e-07 
  1.382000e+03   3.539907e-07 
  1.384000e+03   3.819803e-07 
  1.386000e+03   4.121397e-07 
  1.388000e+03   3.584522e-07 
  1.390000e+03   3.855324e-07 
  1.392000e+03   4.136777e-07 
  1.394000e+03   3.891453e-07 
  1.396000e+03   4.303292e-07 
  1.398000e+03   4.376337e-07 
  1.400000e+03   3.783339e-07 
  1.402000e+03   3.520765e-07 
  1.404000e+03   4.007541e-07 
  1.406000e+03   3.676535e-07 
  1.408000e+03   4.022335e-07 
  1.410000e+03   4.083687e-07 
  1.412000e+03   3.829828e-07 
  1.414000e+03   4.113220e-07 
  1.416000e+03   4.023910e-07 
  1.418000e+03   4.234132e-07 
  1.420000e+03   4.374050e-07 
  1.422000e+03   4.217059e-07 
  1.424000e+03   3.975483e-07 
  1.426000e+03   5.037879e-07 
  1.428000e+03   4.326968e-07 
  1.430000e+03   4.126551e-07 
  1.432000e+03   4.421981e-07 
  1.434000e+03   4.601097e-07 
  1.436000e+03   4.599856e-07 
  1.438000e+03   4.484163e-07 
  1.440000e+03   5.112926e-07 
  1.442000e+03   5.167139e-07 
  1.444000e+03   4.199487e-07 
  1.446000e+03   3.745698e-07 
  1.448000e+03   4.169100e-07 
  1.450000e+03   4.522824e-07 
  1.452000e+03   4.565096e-07 
  1.454000e+03   4.716809e-07 
  1.456000e+03   4.413546e-07 
  1.458000e+03   4.880447e-07 
  1.460000e+03   4.727466e-07 
  1.462000e+03   4.401062e-07 
  1.464000e+03   4.532272e-07 
  1.466000e+03   4.608355e-07 
  1.468000e+03   4.103594e-07 
  1.470000e+03   4.096154e-07 
  1.472000e+03   4.944216e-07 
  1.474000e+03   4.421289e-07 
  1.476000e+03   4.399081e-07 
  1.478000e+03   4.335865e-07 
  1.480000e+03   3.742385e-07 
  1.482000e+03   4.413866e-07 
  1.484000e+03   4.368774e-07 
  1.486000e+03   4.119362e-07 
  1.488000e+03   4.193084e-07 
  1.490000e+03   4.023958e-07 
  1.492000e+03   3.797299e-07 
  1.494000e+03   4.132234e-07 
  1.496000e+03   3.899989e-07 
  1.498000e+03   3.790520e-07 
  1.500000e+03   4.892972e-07 
  1.502000e+03   4.846100e-07 
  1.504000e+03   4.070574e-07 
  1.506000e+03   4.198499e-07 
  1.508000e+03   3.994026e-07 
  1.510000e+03   4.207077e-07 
  1.512000e+03   4.070940e-07 
  1.514000e+03   4.026632e-07 
  1.516000e+03   4.458454e-07 
  1.518000e+03   4.123497e-07 
  1.520000e+03   3.801209e-07 
  1.522000e+03   4.411843e-07 
  1.524000e+03   4.764916e-07 
  1.526000e+03   3.698609e-07 
  1.528000e+03   3.268784e-07 
  1.530000e+03   3.526175e-07 
  1.532000e+03   3.792034e-07 
  1.534000e+03   3.981339e-07 
  1.536000e+03   4.131588e-07 
  1.538000e+03   4.295048e-07 
  1.540000e+03   4.038173e-07 
  1.542000e+03   4.006915e-07 
  1.544000e+03   4.920300e-07 
  1.546000e+03   4.574227e-07 
  1.548000e+03   4.520907e-07 
  1.550000e+03   4.786854e-07 
  1.552000e+03   4.036009e-07 
  1.554000e+03   3.704948e-07 
  1.556000e+03   4.240428e-07 
  1.558000e+03   3.966771e-07 
  1.560000e+03   4.358949e-07 
  1.562000e+03   4.397603e-07 
  1.564000e+03   4.166693e-07 
  1.566000e+03   4.758608e-07 
  1.568000e+03   4.595492e-07 
  1.570000e+03   4.072183e-07 
  1.572000e+03   4.333846e-07 
  1.574000e+03   4.366267e-07 
  1.576000e+03   4.016116e-07 
  1.578000e+03   4.512461e-07 
  1.580000e+03   4.126466e-07 
  1.582000e+03   4.810464e-07 
  1.584000e+03   4.296536e-07 
  1.586000e+03   4.230137e-07 
  1.588000e+03   4.075299e-07 
  1.590000e+03   4.880383e-07 
  1.592000e+03   4.847215e-07 
  1.594000e+03   5.470355e-07 
  1.596000e+03   4.859722e-07 
  1.598000e+03   4.124565e-07 
  1.600000e+03   4.151852e-07 
