Input File: 02SN.78D
Measure Group: FFT
Measurement: FFT 1
Num of extracted Points: 801
Start Freq: -0 Hz
Span: 1.6 kHz
FFT Lines:  800 
Window: Hanning
Averaging Mode: RMS
Averaging Type: Exp. / Cont.
Number of Avg:   30
Overload reject: On

    X[Hz]      Vrms/Hz^(1/... 
  0.000000e+00   2.550349e+00 
  2.000000e+00   1.275490e+00 
  4.000000e+00   2.789052e-03 
  6.000000e+00   2.831040e-03 
  8.000000e+00   2.740380e-03 
  1.000000e+01   2.384699e-03 
  1.200000e+01   2.136688e-03 
  1.400000e+01   1.926443e-03 
  1.600000e+01   1.854194e-03 
  1.800000e+01   2.064751e-03 
  2.000000e+01   1.963594e-03 
  2.200000e+01   1.867162e-03 
  2.400000e+01   1.794177e-03 
  2.600000e+01   1.590958e-03 
  2.800000e+01   1.547385e-03 
  3.000000e+01   1.470487e-03 
  3.200000e+01   1.503251e-03 
  3.400000e+01   1.361424e-03 
  3.600000e+01   1.455051e-03 
  3.800000e+01   1.457779e-03 
  4.000000e+01   1.409904e-03 
  4.200000e+01   1.352549e-03 
  4.400000e+01   1.275931e-03 
  4.600000e+01   1.338959e-03 
  4.800000e+01   1.409329e-03 
  5.000000e+01   1.281887e-03 
  5.200000e+01   1.142218e-03 
  5.400000e+01   1.138518e-03 
  5.600000e+01   1.211961e-03 
  5.800000e+01   3.059731e-03 
  6.000000e+01   5.763281e-03 
  6.200000e+01   3.000968e-03 
  6.400000e+01   8.319829e-04 
  6.600000e+01   8.344596e-04 
  6.800000e+01   9.400304e-04 
  7.000000e+01   9.818053e-04 
  7.200000e+01   8.391734e-04 
  7.400000e+01   7.851131e-04 
  7.600000e+01   7.629371e-04 
  7.800000e+01   7.534107e-04 
  8.000000e+01   7.801398e-04 
  8.200000e+01   7.406312e-04 
  8.400000e+01   7.646988e-04 
  8.600000e+01   6.802530e-04 
  8.800000e+01   6.535127e-04 
  9.000000e+01   7.548762e-04 
  9.200000e+01   8.136400e-04 
  9.400000e+01   6.840545e-04 
  9.600000e+01   6.209238e-04 
  9.800000e+01   6.684235e-04 
  1.000000e+02   7.235276e-04 
  1.020000e+02   6.190823e-04 
  1.040000e+02   6.218593e-04 
  1.060000e+02   6.431841e-04 
  1.080000e+02   6.663516e-04 
  1.100000e+02   6.169174e-04 
  1.120000e+02   5.508803e-04 
  1.140000e+02   5.741562e-04 
  1.160000e+02   5.123487e-04 
  1.180000e+02   5.813720e-04 
  1.200000e+02   6.284096e-04 
  1.220000e+02   4.835804e-04 
  1.240000e+02   4.225651e-04 
  1.260000e+02   5.183293e-04 
  1.280000e+02   4.647439e-04 
  1.300000e+02   4.112528e-04 
  1.320000e+02   4.900295e-04 
  1.340000e+02   5.017220e-04 
  1.360000e+02   4.614126e-04 
  1.380000e+02   4.799373e-04 
  1.400000e+02   4.382987e-04 
  1.420000e+02   4.192165e-04 
  1.440000e+02   4.283641e-04 
  1.460000e+02   4.430035e-04 
  1.480000e+02   4.422793e-04 
  1.500000e+02   4.166421e-04 
  1.520000e+02   3.977419e-04 
  1.540000e+02   3.227390e-04 
  1.560000e+02   3.674726e-04 
  1.580000e+02   3.846180e-04 
  1.600000e+02   3.762402e-04 
  1.620000e+02   3.508181e-04 
  1.640000e+02   3.755836e-04 
  1.660000e+02   4.201907e-04 
  1.680000e+02   3.941867e-04 
  1.700000e+02   3.423146e-04 
  1.720000e+02   3.371999e-04 
  1.740000e+02   3.305317e-04 
  1.760000e+02   3.241221e-04 
  1.780000e+02   3.746872e-04 
  1.800000e+02   3.609238e-04 
  1.820000e+02   3.054139e-04 
  1.840000e+02   3.239543e-04 
  1.860000e+02   3.230413e-04 
  1.880000e+02   3.812339e-04 
  1.900000e+02   3.484990e-04 
  1.920000e+02   3.782683e-04 
  1.940000e+02   3.971707e-04 
  1.960000e+02   3.426623e-04 
  1.980000e+02   3.056561e-04 
  2.000000e+02   3.371005e-04 
  2.020000e+02   3.231195e-04 
  2.040000e+02   3.098129e-04 
  2.060000e+02   3.137588e-04 
  2.080000e+02   3.246657e-04 
  2.100000e+02   3.464673e-04 
  2.120000e+02   3.190507e-04 
  2.140000e+02   2.607850e-04 
  2.160000e+02   2.764658e-04 
  2.180000e+02   2.788791e-04 
  2.200000e+02   2.818084e-04 
  2.220000e+02   2.780186e-04 
  2.240000e+02   2.286393e-04 
  2.260000e+02   2.479231e-04 
  2.280000e+02   2.797929e-04 
  2.300000e+02   2.699041e-04 
  2.320000e+02   2.509166e-04 
  2.340000e+02   2.621216e-04 
  2.360000e+02   2.854921e-04 
  2.380000e+02   2.239713e-04 
  2.400000e+02   2.155413e-04 
  2.420000e+02   2.372816e-04 
  2.440000e+02   2.773934e-04 
  2.460000e+02   2.690108e-04 
  2.480000e+02   2.590297e-04 
  2.500000e+02   2.520372e-04 
  2.520000e+02   2.621551e-04 
  2.540000e+02   2.639263e-04 
  2.560000e+02   2.404191e-04 
  2.580000e+02   2.250922e-04 
  2.600000e+02   2.159268e-04 
  2.620000e+02   2.129558e-04 
  2.640000e+02   2.184310e-04 
  2.660000e+02   2.288625e-04 
  2.680000e+02   2.442654e-04 
  2.700000e+02   2.284958e-04 
  2.720000e+02   2.530685e-04 
  2.740000e+02   2.416981e-04 
  2.760000e+02   2.317687e-04 
  2.780000e+02   2.421694e-04 
  2.800000e+02   2.304690e-04 
  2.820000e+02   1.956956e-04 
  2.840000e+02   2.188811e-04 
  2.860000e+02   2.450909e-04 
  2.880000e+02   2.534613e-04 
  2.900000e+02   2.482070e-04 
  2.920000e+02   2.177781e-04 
  2.940000e+02   2.205668e-04 
  2.960000e+02   2.288224e-04 
  2.980000e+02   2.372872e-04 
  3.000000e+02   2.583943e-04 
  3.020000e+02   2.172666e-04 
  3.040000e+02   2.023736e-04 
  3.060000e+02   1.884992e-04 
  3.080000e+02   2.057913e-04 
  3.100000e+02   2.194764e-04 
  3.120000e+02   2.075334e-04 
  3.140000e+02   1.777701e-04 
  3.160000e+02   1.925419e-04 
  3.180000e+02   1.855497e-04 
  3.200000e+02   1.510664e-04 
  3.220000e+02   1.832335e-04 
  3.240000e+02   1.865106e-04 
  3.260000e+02   1.852370e-04 
  3.280000e+02   1.862231e-04 
  3.300000e+02   1.890912e-04 
  3.320000e+02   1.956726e-04 
  3.340000e+02   1.931955e-04 
  3.360000e+02   1.981451e-04 
  3.380000e+02   1.913475e-04 
  3.400000e+02   1.996595e-04 
  3.420000e+02   1.899137e-04 
  3.440000e+02   2.081546e-04 
  3.460000e+02   1.818258e-04 
  3.480000e+02   1.500655e-04 
  3.500000e+02   1.761617e-04 
  3.520000e+02   1.762159e-04 
  3.540000e+02   1.629232e-04 
  3.560000e+02   1.706728e-04 
  3.580000e+02   1.658090e-04 
  3.600000e+02   1.566906e-04 
  3.620000e+02   1.695081e-04 
  3.640000e+02   1.806723e-04 
  3.660000e+02   1.739200e-04 
  3.680000e+02   1.793214e-04 
  3.700000e+02   1.690235e-04 
  3.720000e+02   1.863938e-04 
  3.740000e+02   2.059134e-04 
  3.760000e+02   1.974974e-04 
  3.780000e+02   1.700500e-04 
  3.800000e+02   1.848753e-04 
  3.820000e+02   1.682416e-04 
  3.840000e+02   1.551814e-04 
  3.860000e+02   1.658142e-04 
  3.880000e+02   1.470181e-04 
  3.900000e+02   1.377341e-04 
  3.920000e+02   1.433141e-04 
  3.940000e+02   1.505488e-04 
  3.960000e+02   1.582724e-04 
  3.980000e+02   1.402380e-04 
  4.000000e+02   1.624808e-04 
  4.020000e+02   1.786682e-04 
  4.040000e+02   1.503764e-04 
  4.060000e+02   1.598254e-04 
  4.080000e+02   1.758555e-04 
  4.100000e+02   1.424268e-04 
  4.120000e+02   1.504495e-04 
  4.140000e+02   1.641553e-04 
  4.160000e+02   1.651577e-04 
  4.180000e+02   1.534423e-04 
  4.200000e+02   1.735758e-04 
  4.220000e+02   1.530328e-04 
  4.240000e+02   1.542244e-04 
  4.260000e+02   1.378588e-04 
  4.280000e+02   1.353080e-04 
  4.300000e+02   1.393923e-04 
  4.320000e+02   1.481272e-04 
  4.340000e+02   1.581097e-04 
  4.360000e+02   1.492063e-04 
  4.380000e+02   1.426373e-04 
  4.400000e+02   1.478355e-04 
  4.420000e+02   1.391936e-04 
  4.440000e+02   1.447404e-04 
  4.460000e+02   1.378923e-04 
  4.480000e+02   1.468747e-04 
  4.500000e+02   1.415913e-04 
  4.520000e+02   1.354961e-04 
  4.540000e+02   1.456384e-04 
  4.560000e+02   1.231786e-04 
  4.580000e+02   1.293184e-04 
  4.600000e+02   1.507070e-04 
  4.620000e+02   1.539744e-04 
  4.640000e+02   1.501620e-04 
  4.660000e+02   1.540968e-04 
  4.680000e+02   1.298021e-04 
  4.700000e+02   1.265617e-04 
  4.720000e+02   1.406323e-04 
  4.740000e+02   1.392439e-04 
  4.760000e+02   1.210743e-04 
  4.780000e+02   1.194913e-04 
  4.800000e+02   1.395759e-04 
  4.820000e+02   1.258896e-04 
  4.840000e+02   1.257104e-04 
  4.860000e+02   1.242109e-04 
  4.880000e+02   1.235790e-04 
  4.900000e+02   1.292807e-04 
  4.920000e+02   1.233224e-04 
  4.940000e+02   1.258976e-04 
  4.960000e+02   1.271088e-04 
  4.980000e+02   1.372026e-04 
  5.000000e+02   1.283270e-04 
  5.020000e+02   9.633807e-05 
  5.040000e+02   1.060530e-04 
  5.060000e+02   1.019248e-04 
  5.080000e+02   1.088139e-04 
  5.100000e+02   1.242141e-04 
  5.120000e+02   1.252182e-04 
  5.140000e+02   1.117623e-04 
  5.160000e+02   1.249384e-04 
  5.180000e+02   1.157840e-04 
  5.200000e+02   1.228207e-04 
  5.220000e+02   1.106711e-04 
  5.240000e+02   1.138676e-04 
  5.260000e+02   1.146794e-04 
  5.280000e+02   1.101953e-04 
  5.300000e+02   1.097228e-04 
  5.320000e+02   1.185392e-04 
  5.340000e+02   1.311648e-04 
  5.360000e+02   1.400443e-04 
  5.380000e+02   1.259722e-04 
  5.400000e+02   1.232898e-04 
  5.420000e+02   1.142745e-04 
  5.440000e+02   1.035582e-04 
  5.460000e+02   1.123971e-04 
  5.480000e+02   1.260654e-04 
  5.500000e+02   1.231263e-04 
  5.520000e+02   1.085500e-04 
  5.540000e+02   1.075622e-04 
  5.560000e+02   1.110038e-04 
  5.580000e+02   1.043728e-04 
  5.600000e+02   1.081353e-04 
  5.620000e+02   1.045713e-04 
  5.640000e+02   1.036193e-04 
  5.660000e+02   1.152334e-04 
  5.680000e+02   1.121935e-04 
  5.700000e+02   1.123916e-04 
  5.720000e+02   1.055629e-04 
  5.740000e+02   1.095549e-04 
  5.760000e+02   1.262000e-04 
  5.780000e+02   1.127904e-04 
  5.800000e+02   1.044621e-04 
  5.820000e+02   1.136175e-04 
  5.840000e+02   1.082827e-04 
  5.860000e+02   1.059703e-04 
  5.880000e+02   1.172473e-04 
  5.900000e+02   1.170327e-04 
  5.920000e+02   9.682224e-05 
  5.940000e+02   1.022865e-04 
  5.960000e+02   1.118007e-04 
  5.980000e+02   1.119733e-04 
  6.000000e+02   1.090698e-04 
  6.020000e+02   1.004603e-04 
  6.040000e+02   9.940182e-05 
  6.060000e+02   1.050107e-04 
  6.080000e+02   1.082538e-04 
  6.100000e+02   1.128484e-04 
  6.120000e+02   1.027576e-04 
  6.140000e+02   1.029586e-04 
  6.160000e+02   8.930029e-05 
  6.180000e+02   1.101422e-04 
  6.200000e+02   9.710947e-05 
  6.220000e+02   7.977417e-05 
  6.240000e+02   9.461202e-05 
  6.260000e+02   9.928866e-05 
  6.280000e+02   1.014283e-04 
  6.300000e+02   9.599882e-05 
  6.320000e+02   1.014710e-04 
  6.340000e+02   1.021609e-04 
  6.360000e+02   1.014577e-04 
  6.380000e+02   9.906310e-05 
  6.400000e+02   1.021219e-04 
  6.420000e+02   1.040956e-04 
  6.440000e+02   1.056940e-04 
  6.460000e+02   9.500603e-05 
  6.480000e+02   1.011646e-04 
  6.500000e+02   1.031263e-04 
  6.520000e+02   1.073248e-04 
  6.540000e+02   1.072718e-04 
  6.560000e+02   9.770813e-05 
  6.580000e+02   8.802459e-05 
  6.600000e+02   1.069553e-04 
  6.620000e+02   9.036440e-05 
  6.640000e+02   9.120822e-05 
  6.660000e+02   9.387358e-05 
  6.680000e+02   8.042422e-05 
  6.700000e+02   8.554215e-05 
  6.720000e+02   8.524224e-05 
  6.740000e+02   8.486294e-05 
  6.760000e+02   8.773337e-05 
  6.780000e+02   8.383029e-05 
  6.800000e+02   8.412278e-05 
  6.820000e+02   7.926803e-05 
  6.840000e+02   8.419183e-05 
  6.860000e+02   8.804433e-05 
  6.880000e+02   8.832127e-05 
  6.900000e+02   8.828218e-05 
  6.920000e+02   1.110793e-04 
  6.940000e+02   9.904795e-05 
  6.960000e+02   8.845900e-05 
  6.980000e+02   9.023427e-05 
  7.000000e+02   9.050033e-05 
  7.020000e+02   9.097448e-05 
  7.040000e+02   8.997760e-05 
  7.060000e+02   9.341703e-05 
  7.080000e+02   8.111499e-05 
  7.100000e+02   7.472804e-05 
  7.120000e+02   8.363240e-05 
  7.140000e+02   1.031196e-04 
  7.160000e+02   1.067281e-04 
  7.180000e+02   9.093220e-05 
  7.200000e+02   8.009629e-05 
  7.220000e+02   6.928383e-05 
  7.240000e+02   9.063797e-05 
  7.260000e+02   9.245666e-05 
  7.280000e+02   8.902433e-05 
  7.300000e+02   9.298914e-05 
  7.320000e+02   9.050137e-05 
  7.340000e+02   8.452316e-05 
  7.360000e+02   7.512973e-05 
  7.380000e+02   8.189672e-05 
  7.400000e+02   9.085126e-05 
  7.420000e+02   8.733339e-05 
  7.440000e+02   7.749398e-05 
  7.460000e+02   7.570945e-05 
  7.480000e+02   8.252018e-05 
  7.500000e+02   7.384652e-05 
  7.520000e+02   8.493873e-05 
  7.540000e+02   7.047638e-05 
  7.560000e+02   7.588478e-05 
  7.580000e+02   8.589024e-05 
  7.600000e+02   9.201960e-05 
  7.620000e+02   7.851842e-05 
  7.640000e+02   6.594085e-05 
  7.660000e+02   7.090466e-05 
  7.680000e+02   7.708780e-05 
  7.700000e+02   7.611683e-05 
  7.720000e+02   8.758769e-05 
  7.740000e+02   8.700397e-05 
  7.760000e+02   8.316756e-05 
  7.780000e+02   7.717796e-05 
  7.800000e+02   7.639074e-05 
  7.820000e+02   7.374404e-05 
  7.840000e+02   7.515919e-05 
  7.860000e+02   7.206779e-05 
  7.880000e+02   8.144275e-05 
  7.900000e+02   8.461719e-05 
  7.920000e+02   7.749091e-05 
  7.940000e+02   8.317239e-05 
  7.960000e+02   8.250577e-05 
  7.980000e+02   8.244646e-05 
  8.000000e+02   8.806205e-05 
  8.020000e+02   8.305529e-05 
  8.040000e+02   7.126610e-05 
  8.060000e+02   6.964437e-05 
  8.080000e+02   6.873203e-05 
  8.100000e+02   7.065891e-05 
  8.120000e+02   7.616693e-05 
  8.140000e+02   7.291509e-05 
  8.160000e+02   7.741616e-05 
  8.180000e+02   7.617458e-05 
  8.200000e+02   6.943251e-05 
  8.220000e+02   7.836281e-05 
  8.240000e+02   8.969153e-05 
  8.260000e+02   7.495144e-05 
  8.280000e+02   6.963690e-05 
  8.300000e+02   7.271059e-05 
  8.320000e+02   7.601702e-05 
  8.340000e+02   7.377935e-05 
  8.360000e+02   8.124405e-05 
  8.380000e+02   7.721238e-05 
  8.400000e+02   7.072907e-05 
  8.420000e+02   7.583621e-05 
  8.440000e+02   7.588216e-05 
  8.460000e+02   6.886931e-05 
  8.480000e+02   7.988264e-05 
  8.500000e+02   8.203081e-05 
  8.520000e+02   7.128635e-05 
  8.540000e+02   7.555849e-05 
  8.560000e+02   8.057152e-05 
  8.580000e+02   7.570483e-05 
  8.600000e+02   7.957254e-05 
  8.620000e+02   8.448985e-05 
  8.640000e+02   6.904153e-05 
  8.660000e+02   7.045793e-05 
  8.680000e+02   6.484649e-05 
  8.700000e+02   5.877774e-05 
  8.720000e+02   7.244306e-05 
  8.740000e+02   7.955096e-05 
  8.760000e+02   7.676716e-05 
  8.780000e+02   6.905468e-05 
  8.800000e+02   7.072101e-05 
  8.820000e+02   7.433676e-05 
  8.840000e+02   7.325368e-05 
  8.860000e+02   7.346926e-05 
  8.880000e+02   6.730536e-05 
  8.900000e+02   7.559357e-05 
  8.920000e+02   8.220498e-05 
  8.940000e+02   6.732166e-05 
  8.960000e+02   5.966827e-05 
  8.980000e+02   7.410278e-05 
  9.000000e+02   7.573035e-05 
  9.020000e+02   6.904149e-05 
  9.040000e+02   6.385582e-05 
  9.060000e+02   6.032849e-05 
  9.080000e+02   6.812107e-05 
  9.100000e+02   7.419063e-05 
  9.120000e+02   6.842521e-05 
  9.140000e+02   6.751897e-05 
  9.160000e+02   6.134563e-05 
  9.180000e+02   5.895780e-05 
  9.200000e+02   6.580084e-05 
  9.220000e+02   7.761839e-05 
  9.240000e+02   6.783225e-05 
  9.260000e+02   6.070644e-05 
  9.280000e+02   7.327541e-05 
  9.300000e+02   7.782871e-05 
  9.320000e+02   7.520709e-05 
  9.340000e+02   7.008557e-05 
  9.360000e+02   6.749572e-05 
  9.380000e+02   7.067925e-05 
  9.400000e+02   6.547993e-05 
  9.420000e+02   5.043237e-05 
  9.440000e+02   5.681290e-05 
  9.460000e+02   6.511130e-05 
  9.480000e+02   7.378190e-05 
  9.500000e+02   7.731817e-05 
  9.520000e+02   6.851918e-05 
  9.540000e+02   7.072491e-05 
  9.560000e+02   6.743550e-05 
  9.580000e+02   6.405146e-05 
  9.600000e+02   7.068812e-05 
  9.620000e+02   6.086399e-05 
  9.640000e+02   6.958987e-05 
  9.660000e+02   7.001904e-05 
  9.680000e+02   6.785901e-05 
  9.700000e+02   6.635125e-05 
  9.720000e+02   6.325364e-05 
  9.740000e+02   5.758142e-05 
  9.760000e+02   6.450738e-05 
  9.780000e+02   6.498428e-05 
  9.800000e+02   5.729582e-05 
  9.820000e+02   6.952466e-05 
  9.840000e+02   6.299770e-05 
  9.860000e+02   5.841755e-05 
  9.880000e+02   6.062903e-05 
  9.900000e+02   6.301852e-05 
  9.920000e+02   6.462926e-05 
  9.940000e+02   6.348021e-05 
  9.960000e+02   6.625352e-05 
  9.980000e+02   6.602611e-05 
  1.000000e+03   5.936272e-05 
  1.002000e+03   5.960228e-05 
  1.004000e+03   5.812642e-05 
  1.006000e+03   5.774924e-05 
  1.008000e+03   6.051040e-05 
  1.010000e+03   6.302119e-05 
  1.012000e+03   6.659698e-05 
  1.014000e+03   6.240646e-05 
  1.016000e+03   6.298527e-05 
  1.018000e+03   6.090428e-05 
  1.020000e+03   6.498069e-05 
  1.022000e+03   6.967640e-05 
  1.024000e+03   6.761611e-05 
  1.026000e+03   6.090913e-05 
  1.028000e+03   5.997403e-05 
  1.030000e+03   5.682449e-05 
  1.032000e+03   5.512060e-05 
  1.034000e+03   6.420768e-05 
  1.036000e+03   6.064069e-05 
  1.038000e+03   6.872800e-05 
  1.040000e+03   6.399964e-05 
  1.042000e+03   6.098694e-05 
  1.044000e+03   6.536934e-05 
  1.046000e+03   6.291401e-05 
  1.048000e+03   5.617911e-05 
  1.050000e+03   6.603578e-05 
  1.052000e+03   6.634451e-05 
  1.054000e+03   6.352723e-05 
  1.056000e+03   6.246382e-05 
  1.058000e+03   6.377526e-05 
  1.060000e+03   6.010702e-05 
  1.062000e+03   6.339067e-05 
  1.064000e+03   6.626776e-05 
  1.066000e+03   6.248913e-05 
  1.068000e+03   6.329130e-05 
  1.070000e+03   5.545241e-05 
  1.072000e+03   5.687684e-05 
  1.074000e+03   5.538332e-05 
  1.076000e+03   6.251066e-05 
  1.078000e+03   5.439490e-05 
  1.080000e+03   6.013449e-05 
  1.082000e+03   7.356471e-05 
  1.084000e+03   6.618692e-05 
  1.086000e+03   6.339346e-05 
  1.088000e+03   6.919292e-05 
  1.090000e+03   6.116709e-05 
  1.092000e+03   6.169103e-05 
  1.094000e+03   7.166841e-05 
  1.096000e+03   6.217590e-05 
  1.098000e+03   4.828553e-05 
  1.100000e+03   4.482735e-05 
  1.102000e+03   5.650458e-05 
  1.104000e+03   5.596779e-05 
  1.106000e+03   5.621884e-05 
  1.108000e+03   5.331286e-05 
  1.110000e+03   5.711112e-05 
  1.112000e+03   6.086781e-05 
  1.114000e+03   5.521998e-05 
  1.116000e+03   4.481875e-05 
  1.118000e+03   4.597193e-05 
  1.120000e+03   5.631302e-05 
  1.122000e+03   5.623116e-05 
  1.124000e+03   5.073878e-05 
  1.126000e+03   5.949763e-05 
  1.128000e+03   5.642105e-05 
  1.130000e+03   6.228605e-05 
  1.132000e+03   6.313678e-05 
  1.134000e+03   6.108325e-05 
  1.136000e+03   6.053600e-05 
  1.138000e+03   6.798218e-05 
  1.140000e+03   6.735282e-05 
  1.142000e+03   6.232134e-05 
  1.144000e+03   5.438754e-05 
  1.146000e+03   5.436132e-05 
  1.148000e+03   5.005353e-05 
  1.150000e+03   5.227389e-05 
  1.152000e+03   5.213952e-05 
  1.154000e+03   4.927765e-05 
  1.156000e+03   5.417112e-05 
  1.158000e+03   5.237271e-05 
  1.160000e+03   5.851025e-05 
  1.162000e+03   5.686748e-05 
  1.164000e+03   5.301615e-05 
  1.166000e+03   5.565723e-05 
  1.168000e+03   5.621910e-05 
  1.170000e+03   5.832159e-05 
  1.172000e+03   5.300686e-05 
  1.174000e+03   5.660884e-05 
  1.176000e+03   5.377271e-05 
  1.178000e+03   5.671484e-05 
  1.180000e+03   6.385359e-05 
  1.182000e+03   5.459072e-05 
  1.184000e+03   6.059897e-05 
  1.186000e+03   6.379557e-05 
  1.188000e+03   4.720671e-05 
  1.190000e+03   5.307782e-05 
  1.192000e+03   4.907827e-05 
  1.194000e+03   4.974102e-05 
  1.196000e+03   5.081705e-05 
  1.198000e+03   5.037473e-05 
  1.200000e+03   5.741788e-05 
  1.202000e+03   5.727141e-05 
  1.204000e+03   4.842647e-05 
  1.206000e+03   4.303626e-05 
  1.208000e+03   4.314665e-05 
  1.210000e+03   5.494905e-05 
  1.212000e+03   5.450932e-05 
  1.214000e+03   4.861827e-05 
  1.216000e+03   5.153855e-05 
  1.218000e+03   5.304749e-05 
  1.220000e+03   5.359696e-05 
  1.222000e+03   5.546778e-05 
  1.224000e+03   5.317081e-05 
  1.226000e+03   5.900229e-05 
  1.228000e+03   5.781896e-05 
  1.230000e+03   5.592533e-05 
  1.232000e+03   5.147232e-05 
  1.234000e+03   4.948810e-05 
  1.236000e+03   5.012624e-05 
  1.238000e+03   5.538212e-05 
  1.240000e+03   5.761853e-05 
  1.242000e+03   5.104708e-05 
  1.244000e+03   4.839309e-05 
  1.246000e+03   4.960012e-05 
  1.248000e+03   5.052505e-05 
  1.250000e+03   4.569186e-05 
  1.252000e+03   5.169395e-05 
  1.254000e+03   5.300652e-05 
  1.256000e+03   4.967202e-05 
  1.258000e+03   4.495825e-05 
  1.260000e+03   4.398623e-05 
  1.262000e+03   5.102581e-05 
  1.264000e+03   5.748243e-05 
  1.266000e+03   5.700763e-05 
  1.268000e+03   5.442087e-05 
  1.270000e+03   5.020393e-05 
  1.272000e+03   5.174958e-05 
  1.274000e+03   5.009743e-05 
  1.276000e+03   5.444780e-05 
  1.278000e+03   5.158444e-05 
  1.280000e+03   5.000891e-05 
  1.282000e+03   4.783844e-05 
  1.284000e+03   4.162803e-05 
  1.286000e+03   4.279327e-05 
  1.288000e+03   5.321136e-05 
  1.290000e+03   5.511897e-05 
  1.292000e+03   5.797492e-05 
  1.294000e+03   4.778505e-05 
  1.296000e+03   4.390362e-05 
  1.298000e+03   5.024271e-05 
  1.300000e+03   4.316756e-05 
  1.302000e+03   4.750098e-05 
  1.304000e+03   4.731893e-05 
  1.306000e+03   4.756618e-05 
  1.308000e+03   5.460500e-05 
  1.310000e+03   5.222104e-05 
  1.312000e+03   4.776253e-05 
  1.314000e+03   5.325859e-05 
  1.316000e+03   5.548222e-05 
  1.318000e+03   5.404901e-05 
  1.320000e+03   5.141435e-05 
  1.322000e+03   4.627589e-05 
  1.324000e+03   4.299074e-05 
  1.326000e+03   4.383527e-05 
  1.328000e+03   4.854200e-05 
  1.330000e+03   4.621462e-05 
  1.332000e+03   5.173899e-05 
  1.334000e+03   5.068950e-05 
  1.336000e+03   4.576202e-05 
  1.338000e+03   4.352925e-05 
  1.340000e+03   4.707876e-05 
  1.342000e+03   4.569289e-05 
  1.344000e+03   4.676557e-05 
  1.346000e+03   4.743140e-05 
  1.348000e+03   4.482708e-05 
  1.350000e+03   4.194357e-05 
  1.352000e+03   5.072073e-05 
  1.354000e+03   4.852962e-05 
  1.356000e+03   4.367493e-05 
  1.358000e+03   4.796805e-05 
  1.360000e+03   5.324120e-05 
  1.362000e+03   5.014717e-05 
  1.364000e+03   5.146592e-05 
  1.366000e+03   4.972204e-05 
  1.368000e+03   5.003712e-05 
  1.370000e+03   5.209721e-05 
  1.372000e+03   5.442541e-05 
  1.374000e+03   4.648654e-05 
  1.376000e+03   4.208306e-05 
  1.378000e+03   4.344633e-05 
  1.380000e+03   4.745117e-05 
  1.382000e+03   4.652754e-05 
  1.384000e+03   4.513553e-05 
  1.386000e+03   4.109215e-05 
  1.388000e+03   3.647391e-05 
  1.390000e+03   4.089428e-05 
  1.392000e+03   4.270945e-05 
  1.394000e+03   4.448137e-05 
  1.396000e+03   4.496091e-05 
  1.398000e+03   4.523091e-05 
  1.400000e+03   4.654260e-05 
  1.402000e+03   4.298073e-05 
  1.404000e+03   4.208755e-05 
  1.406000e+03   4.338951e-05 
  1.408000e+03   4.437308e-05 
  1.410000e+03   4.542697e-05 
  1.412000e+03   4.382509e-05 
  1.414000e+03   4.449647e-05 
  1.416000e+03   4.454985e-05 
  1.418000e+03   4.299514e-05 
  1.420000e+03   4.611414e-05 
  1.422000e+03   5.662925e-05 
  1.424000e+03   5.591213e-05 
  1.426000e+03   4.775811e-05 
  1.428000e+03   4.934399e-05 
  1.430000e+03   4.879179e-05 
  1.432000e+03   5.179463e-05 
  1.434000e+03   4.529164e-05 
  1.436000e+03   4.496548e-05 
  1.438000e+03   4.448972e-05 
  1.440000e+03   4.492212e-05 
  1.442000e+03   4.518784e-05 
  1.444000e+03   4.702051e-05 
  1.446000e+03   4.782950e-05 
  1.448000e+03   4.838744e-05 
  1.450000e+03   4.531941e-05 
  1.452000e+03   4.228202e-05 
  1.454000e+03   4.167822e-05 
  1.456000e+03   4.405901e-05 
  1.458000e+03   4.536066e-05 
  1.460000e+03   4.309618e-05 
  1.462000e+03   4.340754e-05 
  1.464000e+03   3.777459e-05 
  1.466000e+03   3.960766e-05 
  1.468000e+03   4.565063e-05 
  1.470000e+03   4.341962e-05 
  1.472000e+03   4.097362e-05 
  1.474000e+03   3.509294e-05 
  1.476000e+03   4.257999e-05 
  1.478000e+03   4.471810e-05 
  1.480000e+03   4.090603e-05 
  1.482000e+03   4.167136e-05 
  1.484000e+03   4.150405e-05 
  1.486000e+03   4.300439e-05 
  1.488000e+03   4.829627e-05 
  1.490000e+03   4.830196e-05 
  1.492000e+03   3.933109e-05 
  1.494000e+03   4.001400e-05 
  1.496000e+03   3.913669e-05 
  1.498000e+03   4.564429e-05 
  1.500000e+03   4.356244e-05 
  1.502000e+03   4.071403e-05 
  1.504000e+03   4.822158e-05 
  1.506000e+03   4.390429e-05 
  1.508000e+03   4.090592e-05 
  1.510000e+03   3.879188e-05 
  1.512000e+03   3.797331e-05 
  1.514000e+03   4.554326e-05 
  1.516000e+03   4.495164e-05 
  1.518000e+03   4.524735e-05 
  1.520000e+03   4.280854e-05 
  1.522000e+03   4.069985e-05 
  1.524000e+03   3.913875e-05 
  1.526000e+03   3.772635e-05 
  1.528000e+03   4.345933e-05 
  1.530000e+03   3.944482e-05 
  1.532000e+03   3.809222e-05 
  1.534000e+03   3.302957e-05 
  1.536000e+03   3.180755e-05 
  1.538000e+03   3.606455e-05 
  1.540000e+03   3.913029e-05 
  1.542000e+03   3.964913e-05 
  1.544000e+03   3.513326e-05 
  1.546000e+03   3.701392e-05 
  1.548000e+03   4.147211e-05 
  1.550000e+03   4.460688e-05 
  1.552000e+03   4.179545e-05 
  1.554000e+03   3.683725e-05 
  1.556000e+03   4.273239e-05 
  1.558000e+03   4.481893e-05 
  1.560000e+03   3.679768e-05 
  1.562000e+03   3.591302e-05 
  1.564000e+03   3.821435e-05 
  1.566000e+03   4.201249e-05 
  1.568000e+03   3.967643e-05 
  1.570000e+03   3.569641e-05 
  1.572000e+03   3.744174e-05 
  1.574000e+03   3.974935e-05 
  1.576000e+03   4.154659e-05 
  1.578000e+03   4.300492e-05 
  1.580000e+03   4.010654e-05 
  1.582000e+03   3.684731e-05 
  1.584000e+03   3.938982e-05 
  1.586000e+03   4.036588e-05 
  1.588000e+03   3.482181e-05 
  1.590000e+03   3.751244e-05 
  1.592000e+03   3.656981e-05 
  1.594000e+03   4.246317e-05 
  1.596000e+03   4.232251e-05 
  1.598000e+03   3.738685e-05 
  1.600000e+03   3.873883e-05 
