Input File: 02SN.78D
Measure Group: FFT
Measurement: FFT 1
Num of extracted Points: 801
Start Freq: -0 Hz
Span: 1.6 kHz
FFT Lines:  800 
Window: Hanning
Averaging Mode: RMS
Averaging Type: Exp. / Cont.
Number of Avg:   30
Overload reject: On

    X[Hz]      Vrms/Hz^(1/... 
  0.000000e+00   1.632478e+00 
  2.000000e+00   8.174871e-01 
  4.000000e+00   2.117135e-02 
  6.000000e+00   2.287600e-02 
  8.000000e+00   2.228136e-02 
  1.000000e+01   2.111008e-02 
  1.200000e+01   1.976676e-02 
  1.400000e+01   1.833446e-02 
  1.600000e+01   1.720960e-02 
  1.800000e+01   1.517810e-02 
  2.000000e+01   1.522311e-02 
  2.200000e+01   1.491447e-02 
  2.400000e+01   1.507489e-02 
  2.600000e+01   1.506422e-02 
  2.800000e+01   1.363956e-02 
  3.000000e+01   1.250859e-02 
  3.200000e+01   1.197649e-02 
  3.400000e+01   1.087403e-02 
  3.600000e+01   1.148824e-02 
  3.800000e+01   1.175077e-02 
  4.000000e+01   1.069473e-02 
  4.200000e+01   1.084661e-02 
  4.400000e+01   1.161067e-02 
  4.600000e+01   1.160079e-02 
  4.800000e+01   1.041269e-02 
  5.000000e+01   9.284008e-03 
  5.200000e+01   9.505317e-03 
  5.400000e+01   8.941701e-03 
  5.600000e+01   8.865803e-03 
  5.800000e+01   8.867301e-03 
  6.000000e+01   7.979244e-03 
  6.200000e+01   7.543159e-03 
  6.400000e+01   6.974636e-03 
  6.600000e+01   7.162713e-03 
  6.800000e+01   7.410393e-03 
  7.000000e+01   6.401140e-03 
  7.200000e+01   7.108409e-03 
  7.400000e+01   7.328431e-03 
  7.600000e+01   7.189801e-03 
  7.800000e+01   6.118481e-03 
  8.000000e+01   5.694457e-03 
  8.200000e+01   5.974924e-03 
  8.400000e+01   5.868793e-03 
  8.600000e+01   5.432073e-03 
  8.800000e+01   5.284861e-03 
  9.000000e+01   5.284134e-03 
  9.200000e+01   5.665913e-03 
  9.400000e+01   5.069425e-03 
  9.600000e+01   4.907562e-03 
  9.800000e+01   5.959107e-03 
  1.000000e+02   5.138462e-03 
  1.020000e+02   4.674227e-03 
  1.040000e+02   5.061942e-03 
  1.060000e+02   4.701625e-03 
  1.080000e+02   4.620929e-03 
  1.100000e+02   4.842698e-03 
  1.120000e+02   4.752179e-03 
  1.140000e+02   4.824541e-03 
  1.160000e+02   4.189677e-03 
  1.180000e+02   4.362929e-03 
  1.200000e+02   4.845147e-03 
  1.220000e+02   4.135116e-03 
  1.240000e+02   3.896978e-03 
  1.260000e+02   3.677786e-03 
  1.280000e+02   3.834475e-03 
  1.300000e+02   3.926612e-03 
  1.320000e+02   3.709890e-03 
  1.340000e+02   3.487541e-03 
  1.360000e+02   3.611835e-03 
  1.380000e+02   3.766404e-03 
  1.400000e+02   3.997309e-03 
  1.420000e+02   3.722904e-03 
  1.440000e+02   3.422652e-03 
  1.460000e+02   3.436003e-03 
  1.480000e+02   3.546109e-03 
  1.500000e+02   2.949626e-03 
  1.520000e+02   3.285273e-03 
  1.540000e+02   3.611971e-03 
  1.560000e+02   3.245287e-03 
  1.580000e+02   2.944638e-03 
  1.600000e+02   3.174046e-03 
  1.620000e+02   3.067636e-03 
  1.640000e+02   2.820398e-03 
  1.660000e+02   3.120859e-03 
  1.680000e+02   3.210861e-03 
  1.700000e+02   3.087837e-03 
  1.720000e+02   2.718020e-03 
  1.740000e+02   2.691966e-03 
  1.760000e+02   2.730298e-03 
  1.780000e+02   3.060926e-03 
  1.800000e+02   3.356446e-03 
  1.820000e+02   3.088359e-03 
  1.840000e+02   2.938329e-03 
  1.860000e+02   2.774515e-03 
  1.880000e+02   2.798017e-03 
  1.900000e+02   3.091569e-03 
  1.920000e+02   2.871174e-03 
  1.940000e+02   2.994807e-03 
  1.960000e+02   3.052221e-03 
  1.980000e+02   2.831331e-03 
  2.000000e+02   2.733054e-03 
  2.020000e+02   2.493631e-03 
  2.040000e+02   2.516698e-03 
  2.060000e+02   2.556414e-03 
  2.080000e+02   2.793571e-03 
  2.100000e+02   2.528210e-03 
  2.120000e+02   2.503362e-03 
  2.140000e+02   2.484288e-03 
  2.160000e+02   2.549872e-03 
  2.180000e+02   2.209089e-03 
  2.200000e+02   2.223798e-03 
  2.220000e+02   2.446367e-03 
  2.240000e+02   2.459653e-03 
  2.260000e+02   2.372166e-03 
  2.280000e+02   2.235409e-03 
  2.300000e+02   2.281002e-03 
  2.320000e+02   2.138485e-03 
  2.340000e+02   2.175270e-03 
  2.360000e+02   2.195651e-03 
  2.380000e+02   2.292540e-03 
  2.400000e+02   2.089903e-03 
  2.420000e+02   2.063048e-03 
  2.440000e+02   2.172091e-03 
  2.460000e+02   2.156491e-03 
  2.480000e+02   2.172177e-03 
  2.500000e+02   2.236519e-03 
  2.520000e+02   2.137364e-03 
  2.540000e+02   2.143633e-03 
  2.560000e+02   2.221679e-03 
  2.580000e+02   1.969595e-03 
  2.600000e+02   1.968232e-03 
  2.620000e+02   2.062994e-03 
  2.640000e+02   2.132518e-03 
  2.660000e+02   1.994909e-03 
  2.680000e+02   1.819616e-03 
  2.700000e+02   1.906946e-03 
  2.720000e+02   1.859457e-03 
  2.740000e+02   1.896525e-03 
  2.760000e+02   1.968595e-03 
  2.780000e+02   1.772314e-03 
  2.800000e+02   1.842927e-03 
  2.820000e+02   2.088845e-03 
  2.840000e+02   2.028823e-03 
  2.860000e+02   1.817878e-03 
  2.880000e+02   1.736388e-03 
  2.900000e+02   1.850205e-03 
  2.920000e+02   1.804269e-03 
  2.940000e+02   1.658481e-03 
  2.960000e+02   1.684106e-03 
  2.980000e+02   1.907274e-03 
  3.000000e+02   1.714610e-03 
  3.020000e+02   1.621895e-03 
  3.040000e+02   1.571412e-03 
  3.060000e+02   1.489103e-03 
  3.080000e+02   1.671275e-03 
  3.100000e+02   1.744457e-03 
  3.120000e+02   1.754226e-03 
  3.140000e+02   1.570169e-03 
  3.160000e+02   1.745790e-03 
  3.180000e+02   1.880467e-03 
  3.200000e+02   1.815145e-03 
  3.220000e+02   1.738056e-03 
  3.240000e+02   1.572296e-03 
  3.260000e+02   1.569842e-03 
  3.280000e+02   1.696671e-03 
  3.300000e+02   1.667970e-03 
  3.320000e+02   1.607171e-03 
  3.340000e+02   1.540140e-03 
  3.360000e+02   1.462508e-03 
  3.380000e+02   1.418485e-03 
  3.400000e+02   1.290111e-03 
  3.420000e+02   1.473754e-03 
  3.440000e+02   1.437677e-03 
  3.460000e+02   1.493271e-03 
  3.480000e+02   1.531014e-03 
  3.500000e+02   1.548383e-03 
  3.520000e+02   1.431861e-03 
  3.540000e+02   1.409398e-03 
  3.560000e+02   1.473081e-03 
  3.580000e+02   1.499623e-03 
  3.600000e+02   1.593388e-03 
  3.620000e+02   1.649229e-03 
  3.640000e+02   1.531457e-03 
  3.660000e+02   1.560332e-03 
  3.680000e+02   1.556459e-03 
  3.700000e+02   1.407796e-03 
  3.720000e+02   1.360961e-03 
  3.740000e+02   1.460343e-03 
  3.760000e+02   1.439329e-03 
  3.780000e+02   1.320258e-03 
  3.800000e+02   1.351383e-03 
  3.820000e+02   1.233132e-03 
  3.840000e+02   1.343012e-03 
  3.860000e+02   1.353844e-03 
  3.880000e+02   1.349310e-03 
  3.900000e+02   1.325173e-03 
  3.920000e+02   1.354340e-03 
  3.940000e+02   1.371918e-03 
  3.960000e+02   1.261626e-03 
  3.980000e+02   1.313584e-03 
  4.000000e+02   1.283521e-03 
  4.020000e+02   1.250655e-03 
  4.040000e+02   1.458990e-03 
  4.060000e+02   1.413540e-03 
  4.080000e+02   1.359326e-03 
  4.100000e+02   1.253207e-03 
  4.120000e+02   1.218631e-03 
  4.140000e+02   1.129955e-03 
  4.160000e+02   1.161464e-03 
  4.180000e+02   1.336099e-03 
  4.200000e+02   1.314814e-03 
  4.220000e+02   1.220123e-03 
  4.240000e+02   1.277816e-03 
  4.260000e+02   1.180187e-03 
  4.280000e+02   1.185294e-03 
  4.300000e+02   1.306015e-03 
  4.320000e+02   1.194929e-03 
  4.340000e+02   1.183941e-03 
  4.360000e+02   1.172787e-03 
  4.380000e+02   1.225101e-03 
  4.400000e+02   1.233023e-03 
  4.420000e+02   1.060708e-03 
  4.440000e+02   1.122458e-03 
  4.460000e+02   1.189947e-03 
  4.480000e+02   1.045332e-03 
  4.500000e+02   1.084841e-03 
  4.520000e+02   1.152190e-03 
  4.540000e+02   1.122537e-03 
  4.560000e+02   1.145590e-03 
  4.580000e+02   1.168839e-03 
  4.600000e+02   1.185140e-03 
  4.620000e+02   1.009924e-03 
  4.640000e+02   1.014726e-03 
  4.660000e+02   1.139457e-03 
  4.680000e+02   1.097616e-03 
  4.700000e+02   1.015837e-03 
  4.720000e+02   1.040712e-03 
  4.740000e+02   1.053543e-03 
  4.760000e+02   1.043286e-03 
  4.780000e+02   1.167042e-03 
  4.800000e+02   1.248913e-03 
  4.820000e+02   1.134678e-03 
  4.840000e+02   1.102133e-03 
  4.860000e+02   1.018849e-03 
  4.880000e+02   1.012449e-03 
  4.900000e+02   1.073148e-03 
  4.920000e+02   1.176538e-03 
  4.940000e+02   1.076361e-03 
  4.960000e+02   9.111210e-04 
  4.980000e+02   9.353043e-04 
  5.000000e+02   9.821374e-04 
  5.020000e+02   1.017528e-03 
  5.040000e+02   8.895685e-04 
  5.060000e+02   1.038774e-03 
  5.080000e+02   1.058417e-03 
  5.100000e+02   1.096053e-03 
  5.120000e+02   1.110490e-03 
  5.140000e+02   1.037625e-03 
  5.160000e+02   9.992827e-04 
  5.180000e+02   1.090618e-03 
  5.200000e+02   1.032128e-03 
  5.220000e+02   1.107560e-03 
  5.240000e+02   9.767524e-04 
  5.260000e+02   9.184277e-04 
  5.280000e+02   9.740164e-04 
  5.300000e+02   9.404529e-04 
  5.320000e+02   1.053493e-03 
  5.340000e+02   1.122347e-03 
  5.360000e+02   1.028505e-03 
  5.380000e+02   9.062085e-04 
  5.400000e+02   1.041138e-03 
  5.420000e+02   1.034932e-03 
  5.440000e+02   8.863361e-04 
  5.460000e+02   8.354824e-04 
  5.480000e+02   9.649032e-04 
  5.500000e+02   1.007488e-03 
  5.520000e+02   9.746296e-04 
  5.540000e+02   9.638765e-04 
  5.560000e+02   9.246978e-04 
  5.580000e+02   9.024232e-04 
  5.600000e+02   8.862206e-04 
  5.620000e+02   8.564335e-04 
  5.640000e+02   8.738409e-04 
  5.660000e+02   8.548612e-04 
  5.680000e+02   8.771881e-04 
  5.700000e+02   1.009564e-03 
  5.720000e+02   9.895560e-04 
  5.740000e+02   9.305422e-04 
  5.760000e+02   9.133958e-04 
  5.780000e+02   9.001267e-04 
  5.800000e+02   9.064589e-04 
  5.820000e+02   8.979341e-04 
  5.840000e+02   8.050392e-04 
  5.860000e+02   8.589618e-04 
  5.880000e+02   8.238166e-04 
  5.900000e+02   8.394445e-04 
  5.920000e+02   9.101565e-04 
  5.940000e+02   9.427288e-04 
  5.960000e+02   8.936900e-04 
  5.980000e+02   8.532451e-04 
  6.000000e+02   8.405916e-04 
  6.020000e+02   8.538167e-04 
  6.040000e+02   7.802050e-04 
  6.060000e+02   8.802743e-04 
  6.080000e+02   8.679224e-04 
  6.100000e+02   8.226880e-04 
  6.120000e+02   7.886993e-04 
  6.140000e+02   8.199345e-04 
  6.160000e+02   8.000751e-04 
  6.180000e+02   8.161787e-04 
  6.200000e+02   7.937280e-04 
  6.220000e+02   8.068755e-04 
  6.240000e+02   8.842940e-04 
  6.260000e+02   9.030951e-04 
  6.280000e+02   8.601542e-04 
  6.300000e+02   8.954611e-04 
  6.320000e+02   8.235676e-04 
  6.340000e+02   8.484104e-04 
  6.360000e+02   8.557481e-04 
  6.380000e+02   8.341525e-04 
  6.400000e+02   7.538864e-04 
  6.420000e+02   8.133472e-04 
  6.440000e+02   9.007715e-04 
  6.460000e+02   8.549744e-04 
  6.480000e+02   7.974482e-04 
  6.500000e+02   8.035943e-04 
  6.520000e+02   8.439894e-04 
  6.540000e+02   7.553894e-04 
  6.560000e+02   7.926468e-04 
  6.580000e+02   8.072054e-04 
  6.600000e+02   7.651618e-04 
  6.620000e+02   7.414207e-04 
  6.640000e+02   7.826472e-04 
  6.660000e+02   7.489735e-04 
  6.680000e+02   7.563600e-04 
  6.700000e+02   8.686888e-04 
  6.720000e+02   8.726916e-04 
  6.740000e+02   8.141996e-04 
  6.760000e+02   7.987436e-04 
  6.780000e+02   7.441562e-04 
  6.800000e+02   7.549246e-04 
  6.820000e+02   7.787390e-04 
  6.840000e+02   7.394613e-04 
  6.860000e+02   6.971277e-04 
  6.880000e+02   7.422391e-04 
  6.900000e+02   7.075025e-04 
  6.920000e+02   6.770698e-04 
  6.940000e+02   6.777695e-04 
  6.960000e+02   7.509464e-04 
  6.980000e+02   7.769612e-04 
  7.000000e+02   7.806220e-04 
  7.020000e+02   7.015945e-04 
  7.040000e+02   8.064740e-04 
  7.060000e+02   8.866118e-04 
  7.080000e+02   7.946320e-04 
  7.100000e+02   8.577835e-04 
  7.120000e+02   8.487631e-04 
  7.140000e+02   8.320598e-04 
  7.160000e+02   7.870842e-04 
  7.180000e+02   7.260037e-04 
  7.200000e+02   7.675842e-04 
  7.220000e+02   7.871815e-04 
  7.240000e+02   7.314675e-04 
  7.260000e+02   7.138132e-04 
  7.280000e+02   7.361054e-04 
  7.300000e+02   6.913947e-04 
  7.320000e+02   7.280648e-04 
  7.340000e+02   7.353555e-04 
  7.360000e+02   7.757471e-04 
  7.380000e+02   7.541905e-04 
  7.400000e+02   7.350115e-04 
  7.420000e+02   7.573949e-04 
  7.440000e+02   7.322255e-04 
  7.460000e+02   7.166836e-04 
  7.480000e+02   7.174636e-04 
  7.500000e+02   7.379574e-04 
  7.520000e+02   7.346948e-04 
  7.540000e+02   6.909911e-04 
  7.560000e+02   6.669014e-04 
  7.580000e+02   6.404127e-04 
  7.600000e+02   6.461699e-04 
  7.620000e+02   6.969418e-04 
  7.640000e+02   6.866259e-04 
  7.660000e+02   6.782983e-04 
  7.680000e+02   6.667070e-04 
  7.700000e+02   6.540759e-04 
  7.720000e+02   6.890947e-04 
  7.740000e+02   6.669064e-04 
  7.760000e+02   6.060306e-04 
  7.780000e+02   6.843627e-04 
  7.800000e+02   6.851085e-04 
  7.820000e+02   6.409180e-04 
  7.840000e+02   6.913318e-04 
  7.860000e+02   7.700950e-04 
  7.880000e+02   7.001666e-04 
  7.900000e+02   7.310826e-04 
  7.920000e+02   6.843824e-04 
  7.940000e+02   5.954384e-04 
  7.960000e+02   5.731176e-04 
  7.980000e+02   6.246520e-04 
  8.000000e+02   6.678437e-04 
  8.020000e+02   6.214644e-04 
  8.040000e+02   6.150109e-04 
  8.060000e+02   6.070639e-04 
  8.080000e+02   6.345200e-04 
  8.100000e+02   6.679485e-04 
  8.120000e+02   6.529798e-04 
  8.140000e+02   5.601830e-04 
  8.160000e+02   6.216873e-04 
  8.180000e+02   6.608145e-04 
  8.200000e+02   7.103895e-04 
  8.220000e+02   6.974196e-04 
  8.240000e+02   6.720884e-04 
  8.260000e+02   6.339131e-04 
  8.280000e+02   6.311870e-04 
  8.300000e+02   5.997369e-04 
  8.320000e+02   5.414620e-04 
  8.340000e+02   5.589930e-04 
  8.360000e+02   5.643120e-04 
  8.380000e+02   6.287000e-04 
  8.400000e+02   6.587209e-04 
  8.420000e+02   6.692301e-04 
  8.440000e+02   6.206405e-04 
  8.460000e+02   6.019833e-04 
  8.480000e+02   6.302540e-04 
  8.500000e+02   6.098957e-04 
  8.520000e+02   5.817089e-04 
  8.540000e+02   6.284124e-04 
  8.560000e+02   6.600789e-04 
  8.580000e+02   7.041218e-04 
  8.600000e+02   6.234723e-04 
  8.620000e+02   5.988982e-04 
  8.640000e+02   5.568254e-04 
  8.660000e+02   5.710645e-04 
  8.680000e+02   5.291411e-04 
  8.700000e+02   5.763996e-04 
  8.720000e+02   6.389287e-04 
  8.740000e+02   6.377142e-04 
  8.760000e+02   6.159635e-04 
  8.780000e+02   6.036750e-04 
  8.800000e+02   6.394270e-04 
  8.820000e+02   5.572491e-04 
  8.840000e+02   5.714612e-04 
  8.860000e+02   6.249837e-04 
  8.880000e+02   6.325529e-04 
  8.900000e+02   5.981942e-04 
  8.920000e+02   5.951224e-04 
  8.940000e+02   6.003042e-04 
  8.960000e+02   6.525402e-04 
  8.980000e+02   6.346140e-04 
  9.000000e+02   5.558842e-04 
  9.020000e+02   5.607242e-04 
  9.040000e+02   5.099434e-04 
  9.060000e+02   5.612217e-04 
  9.080000e+02   5.738267e-04 
  9.100000e+02   5.560758e-04 
  9.120000e+02   6.216287e-04 
  9.140000e+02   6.408152e-04 
  9.160000e+02   5.729125e-04 
  9.180000e+02   5.917182e-04 
  9.200000e+02   5.828356e-04 
  9.220000e+02   5.350528e-04 
  9.240000e+02   5.676936e-04 
  9.260000e+02   5.582214e-04 
  9.280000e+02   5.656451e-04 
  9.300000e+02   5.444567e-04 
  9.320000e+02   5.098002e-04 
  9.340000e+02   5.887626e-04 
  9.360000e+02   5.979102e-04 
  9.380000e+02   5.234329e-04 
  9.400000e+02   5.590463e-04 
  9.420000e+02   5.575551e-04 
  9.440000e+02   5.431129e-04 
  9.460000e+02   5.708379e-04 
  9.480000e+02   5.966828e-04 
  9.500000e+02   5.805921e-04 
  9.520000e+02   5.223816e-04 
  9.540000e+02   5.320579e-04 
  9.560000e+02   5.212058e-04 
  9.580000e+02   5.667472e-04 
  9.600000e+02   5.675964e-04 
  9.620000e+02   6.032088e-04 
  9.640000e+02   5.733168e-04 
  9.660000e+02   5.676131e-04 
  9.680000e+02   5.752682e-04 
  9.700000e+02   5.395167e-04 
  9.720000e+02   5.757027e-04 
  9.740000e+02   5.706675e-04 
  9.760000e+02   5.528950e-04 
  9.780000e+02   5.079457e-04 
  9.800000e+02   5.372173e-04 
  9.820000e+02   5.398807e-04 
  9.840000e+02   5.762577e-04 
  9.860000e+02   5.542124e-04 
  9.880000e+02   5.386788e-04 
  9.900000e+02   5.787391e-04 
  9.920000e+02   5.230741e-04 
  9.940000e+02   5.456573e-04 
  9.960000e+02   5.548177e-04 
  9.980000e+02   5.307163e-04 
  1.000000e+03   5.344420e-04 
  1.002000e+03   5.193840e-04 
  1.004000e+03   5.319657e-04 
  1.006000e+03   4.806695e-04 
  1.008000e+03   4.871868e-04 
  1.010000e+03   4.896826e-04 
  1.012000e+03   4.957292e-04 
  1.014000e+03   5.668577e-04 
  1.016000e+03   5.364026e-04 
  1.018000e+03   4.918802e-04 
  1.020000e+03   5.168822e-04 
  1.022000e+03   5.248211e-04 
  1.024000e+03   5.031745e-04 
  1.026000e+03   4.635705e-04 
  1.028000e+03   5.107514e-04 
  1.030000e+03   4.917972e-04 
  1.032000e+03   4.650872e-04 
  1.034000e+03   5.102591e-04 
  1.036000e+03   4.907573e-04 
  1.038000e+03   4.598096e-04 
  1.040000e+03   4.714354e-04 
  1.042000e+03   4.718349e-04 
  1.044000e+03   5.508240e-04 
  1.046000e+03   5.259389e-04 
  1.048000e+03   4.706026e-04 
  1.050000e+03   4.965614e-04 
  1.052000e+03   5.010052e-04 
  1.054000e+03   5.184691e-04 
  1.056000e+03   4.904036e-04 
  1.058000e+03   5.352955e-04 
  1.060000e+03   5.180866e-04 
  1.062000e+03   4.545304e-04 
  1.064000e+03   4.697866e-04 
  1.066000e+03   5.469503e-04 
  1.068000e+03   5.579754e-04 
  1.070000e+03   4.353808e-04 
  1.072000e+03   4.318932e-04 
  1.074000e+03   4.468887e-04 
  1.076000e+03   4.386822e-04 
  1.078000e+03   4.123181e-04 
  1.080000e+03   4.404717e-04 
  1.082000e+03   4.676932e-04 
  1.084000e+03   5.120896e-04 
  1.086000e+03   5.296762e-04 
  1.088000e+03   4.837266e-04 
  1.090000e+03   5.361459e-04 
  1.092000e+03   5.877241e-04 
  1.094000e+03   5.121627e-04 
  1.096000e+03   4.512117e-04 
  1.098000e+03   4.329691e-04 
  1.100000e+03   4.659987e-04 
  1.102000e+03   4.428922e-04 
  1.104000e+03   4.467678e-04 
  1.106000e+03   4.947526e-04 
  1.108000e+03   5.015607e-04 
  1.110000e+03   4.881598e-04 
  1.112000e+03   4.789446e-04 
  1.114000e+03   4.832283e-04 
  1.116000e+03   4.932844e-04 
  1.118000e+03   4.744798e-04 
  1.120000e+03   4.516330e-04 
  1.122000e+03   4.596482e-04 
  1.124000e+03   4.961388e-04 
  1.126000e+03   4.714611e-04 
  1.128000e+03   4.659200e-04 
  1.130000e+03   4.912730e-04 
  1.132000e+03   4.687764e-04 
  1.134000e+03   4.453014e-04 
  1.136000e+03   4.102629e-04 
  1.138000e+03   4.014879e-04 
  1.140000e+03   4.411447e-04 
  1.142000e+03   4.374314e-04 
  1.144000e+03   4.577487e-04 
  1.146000e+03   4.313028e-04 
  1.148000e+03   4.089135e-04 
  1.150000e+03   4.325638e-04 
  1.152000e+03   4.526645e-04 
  1.154000e+03   4.406348e-04 
  1.156000e+03   4.632323e-04 
  1.158000e+03   4.125085e-04 
  1.160000e+03   4.723263e-04 
  1.162000e+03   4.677595e-04 
  1.164000e+03   4.497897e-04 
  1.166000e+03   4.369057e-04 
  1.168000e+03   4.257555e-04 
  1.170000e+03   4.238551e-04 
  1.172000e+03   4.181431e-04 
  1.174000e+03   4.379448e-04 
  1.176000e+03   4.340248e-04 
  1.178000e+03   4.207863e-04 
  1.180000e+03   3.898094e-04 
  1.182000e+03   4.443640e-04 
  1.184000e+03   4.801410e-04 
  1.186000e+03   5.018107e-04 
  1.188000e+03   4.548840e-04 
  1.190000e+03   4.411669e-04 
  1.192000e+03   4.394341e-04 
  1.194000e+03   4.064390e-04 
  1.196000e+03   4.307294e-04 
  1.198000e+03   4.208284e-04 
  1.200000e+03   4.507435e-04 
  1.202000e+03   5.072330e-04 
  1.204000e+03   4.555861e-04 
  1.206000e+03   4.018170e-04 
  1.208000e+03   3.919857e-04 
  1.210000e+03   4.082863e-04 
  1.212000e+03   4.331691e-04 
  1.214000e+03   4.473769e-04 
  1.216000e+03   4.223283e-04 
  1.218000e+03   4.218994e-04 
  1.220000e+03   4.280828e-04 
  1.222000e+03   4.250515e-04 
  1.224000e+03   4.133062e-04 
  1.226000e+03   4.433034e-04 
  1.228000e+03   4.343925e-04 
  1.230000e+03   4.086978e-04 
  1.232000e+03   4.125413e-04 
  1.234000e+03   4.386320e-04 
  1.236000e+03   4.603278e-04 
  1.238000e+03   4.307298e-04 
  1.240000e+03   4.323123e-04 
  1.242000e+03   4.403953e-04 
  1.244000e+03   4.557366e-04 
  1.246000e+03   4.015312e-04 
  1.248000e+03   4.208076e-04 
  1.250000e+03   4.253625e-04 
  1.252000e+03   4.032999e-04 
  1.254000e+03   3.980898e-04 
  1.256000e+03   4.436864e-04 
  1.258000e+03   4.719910e-04 
  1.260000e+03   4.156354e-04 
  1.262000e+03   4.184846e-04 
  1.264000e+03   3.988046e-04 
  1.266000e+03   4.107700e-04 
  1.268000e+03   4.176966e-04 
  1.270000e+03   4.250699e-04 
  1.272000e+03   4.485935e-04 
  1.274000e+03   4.060283e-04 
  1.276000e+03   3.916360e-04 
  1.278000e+03   3.814349e-04 
  1.280000e+03   3.649461e-04 
  1.282000e+03   3.837525e-04 
  1.284000e+03   4.012345e-04 
  1.286000e+03   3.838760e-04 
  1.288000e+03   3.531403e-04 
  1.290000e+03   3.698662e-04 
  1.292000e+03   3.842675e-04 
  1.294000e+03   4.160644e-04 
  1.296000e+03   4.254104e-04 
  1.298000e+03   4.117122e-04 
  1.300000e+03   4.081028e-04 
  1.302000e+03   3.981481e-04 
  1.304000e+03   3.758871e-04 
  1.306000e+03   3.639773e-04 
  1.308000e+03   3.894078e-04 
  1.310000e+03   4.118662e-04 
  1.312000e+03   4.013745e-04 
  1.314000e+03   4.002655e-04 
  1.316000e+03   3.884176e-04 
  1.318000e+03   3.933048e-04 
  1.320000e+03   3.823650e-04 
  1.322000e+03   3.652789e-04 
  1.324000e+03   3.623684e-04 
  1.326000e+03   3.856648e-04 
  1.328000e+03   4.069153e-04 
  1.330000e+03   3.724618e-04 
  1.332000e+03   3.862304e-04 
  1.334000e+03   4.538634e-04 
  1.336000e+03   4.511451e-04 
  1.338000e+03   4.037496e-04 
  1.340000e+03   3.982501e-04 
  1.342000e+03   3.931342e-04 
  1.344000e+03   3.783175e-04 
  1.346000e+03   3.875507e-04 
  1.348000e+03   4.148929e-04 
  1.350000e+03   3.969793e-04 
  1.352000e+03   3.816744e-04 
  1.354000e+03   3.891400e-04 
  1.356000e+03   3.927755e-04 
  1.358000e+03   4.069930e-04 
  1.360000e+03   4.187352e-04 
  1.362000e+03   3.865237e-04 
  1.364000e+03   3.917677e-04 
  1.366000e+03   4.178335e-04 
  1.368000e+03   3.783608e-04 
  1.370000e+03   3.744485e-04 
  1.372000e+03   4.131392e-04 
  1.374000e+03   4.253987e-04 
  1.376000e+03   4.010534e-04 
  1.378000e+03   3.847691e-04 
  1.380000e+03   3.731386e-04 
  1.382000e+03   3.770365e-04 
  1.384000e+03   3.716252e-04 
  1.386000e+03   3.833280e-04 
  1.388000e+03   3.822992e-04 
  1.390000e+03   3.506219e-04 
  1.392000e+03   3.304336e-04 
  1.394000e+03   3.327391e-04 
  1.396000e+03   3.656676e-04 
  1.398000e+03   4.080571e-04 
  1.400000e+03   3.823744e-04 
  1.402000e+03   3.517928e-04 
  1.404000e+03   3.409996e-04 
  1.406000e+03   3.528254e-04 
  1.408000e+03   3.282644e-04 
  1.410000e+03   3.416018e-04 
  1.412000e+03   3.568511e-04 
  1.414000e+03   3.149094e-04 
  1.416000e+03   3.413853e-04 
  1.418000e+03   3.327626e-04 
  1.420000e+03   3.530089e-04 
  1.422000e+03   3.840529e-04 
  1.424000e+03   4.280922e-04 
  1.426000e+03   4.419046e-04 
  1.428000e+03   3.921431e-04 
  1.430000e+03   3.793053e-04 
  1.432000e+03   3.812627e-04 
  1.434000e+03   3.606312e-04 
  1.436000e+03   3.502660e-04 
  1.438000e+03   3.071557e-04 
  1.440000e+03   3.476758e-04 
  1.442000e+03   3.734965e-04 
  1.444000e+03   3.574358e-04 
  1.446000e+03   3.301254e-04 
  1.448000e+03   3.243047e-04 
  1.450000e+03   3.708049e-04 
  1.452000e+03   3.821594e-04 
  1.454000e+03   3.637926e-04 
  1.456000e+03   3.475219e-04 
  1.458000e+03   3.519945e-04 
  1.460000e+03   3.647111e-04 
  1.462000e+03   3.233838e-04 
  1.464000e+03   3.434449e-04 
  1.466000e+03   3.897304e-04 
  1.468000e+03   3.728085e-04 
  1.470000e+03   3.640405e-04 
  1.472000e+03   3.306192e-04 
  1.474000e+03   3.236314e-04 
  1.476000e+03   3.503074e-04 
  1.478000e+03   3.766228e-04 
  1.480000e+03   3.714682e-04 
  1.482000e+03   3.780454e-04 
  1.484000e+03   3.593478e-04 
  1.486000e+03   3.305996e-04 
  1.488000e+03   3.182006e-04 
  1.490000e+03   3.422799e-04 
  1.492000e+03   3.930572e-04 
  1.494000e+03   3.578266e-04 
  1.496000e+03   3.659589e-04 
  1.498000e+03   3.898380e-04 
  1.500000e+03   3.904327e-04 
  1.502000e+03   3.763737e-04 
  1.504000e+03   3.363134e-04 
  1.506000e+03   3.238393e-04 
  1.508000e+03   3.383065e-04 
  1.510000e+03   3.230063e-04 
  1.512000e+03   3.485648e-04 
  1.514000e+03   3.409386e-04 
  1.516000e+03   3.601371e-04 
  1.518000e+03   4.066129e-04 
  1.520000e+03   3.943955e-04 
  1.522000e+03   3.723869e-04 
  1.524000e+03   3.846728e-04 
  1.526000e+03   3.592456e-04 
  1.528000e+03   3.298062e-04 
  1.530000e+03   3.432913e-04 
  1.532000e+03   3.207194e-04 
  1.534000e+03   3.462491e-04 
  1.536000e+03   3.389678e-04 
  1.538000e+03   3.214712e-04 
  1.540000e+03   3.426752e-04 
  1.542000e+03   3.655351e-04 
  1.544000e+03   3.573709e-04 
  1.546000e+03   3.156995e-04 
  1.548000e+03   3.048546e-04 
  1.550000e+03   3.117820e-04 
  1.552000e+03   2.877208e-04 
  1.554000e+03   3.024907e-04 
  1.556000e+03   3.370772e-04 
  1.558000e+03   3.241880e-04 
  1.560000e+03   3.001063e-04 
  1.562000e+03   3.331123e-04 
  1.564000e+03   3.148469e-04 
  1.566000e+03   3.316487e-04 
  1.568000e+03   3.349815e-04 
  1.570000e+03   3.256638e-04 
  1.572000e+03   3.534750e-04 
  1.574000e+03   3.594071e-04 
  1.576000e+03   3.487138e-04 
  1.578000e+03   3.315393e-04 
  1.580000e+03   3.376584e-04 
  1.582000e+03   3.462230e-04 
  1.584000e+03   3.137637e-04 
  1.586000e+03   2.854663e-04 
  1.588000e+03   3.045618e-04 
  1.590000e+03   2.901636e-04 
  1.592000e+03   2.920095e-04 
  1.594000e+03   3.017391e-04 
  1.596000e+03   3.283806e-04 
  1.598000e+03   3.490078e-04 
  1.600000e+03   3.369605e-04 
