Input File: 02SN.78D
Measure Group: FFT
Measurement: FFT 1
Num of extracted Points: 401
Start Freq: -0 Hz
Span: 1.6 kHz
FFT Lines:  400 
Window: BMH
Averaging Mode: RMS
Averaging Type: Exp. / Cont.
Number of Avg:  100
Overload reject: Off

    X[Hz]      Vrms/Hz^(1/... 
  0.000000e+00   4.004232e-01 
  4.000000e+00   2.725260e-01 
  8.000000e+00   7.889233e-02 
  1.200000e+01   6.569033e-03 
  1.600000e+01   2.350163e-04 
  2.000000e+01   2.145670e-04 
  2.400000e+01   2.010037e-04 
  2.800000e+01   1.987867e-04 
  3.200000e+01   1.886650e-04 
  3.600000e+01   1.711028e-04 
  4.000000e+01   1.586834e-04 
  4.400000e+01   1.502704e-04 
  4.800000e+01   1.333838e-04 
  5.200000e+01   1.292248e-04 
  5.600000e+01   1.567242e-04 
  6.000000e+01   1.953696e-04 
  6.400000e+01   1.534635e-04 
  6.800000e+01   1.037392e-04 
  7.200000e+01   1.002503e-04 
  7.600000e+01   1.018538e-04 
  8.000000e+01   1.002390e-04 
  8.400000e+01   9.467952e-05 
  8.800000e+01   8.636694e-05 
  9.200000e+01   7.730057e-05 
  9.600000e+01   7.134186e-05 
  1.000000e+02   7.303446e-05 
  1.040000e+02   7.001217e-05 
  1.080000e+02   6.605758e-05 
  1.120000e+02   6.717957e-05 
  1.160000e+02   6.525905e-05 
  1.200000e+02   6.229464e-05 
  1.240000e+02   5.828339e-05 
  1.280000e+02   5.792802e-05 
  1.320000e+02   5.765731e-05 
  1.360000e+02   5.690857e-05 
  1.400000e+02   5.593864e-05 
  1.440000e+02   5.263159e-05 
  1.480000e+02   5.282968e-05 
  1.520000e+02   5.283002e-05 
  1.560000e+02   4.996722e-05 
  1.600000e+02   4.821515e-05 
  1.640000e+02   4.583668e-05 
  1.680000e+02   4.191350e-05 
  1.720000e+02   4.049860e-05 
  1.760000e+02   6.444638e-05 
  1.800000e+02   9.008125e-05 
  1.840000e+02   6.985642e-05 
  1.880000e+02   4.242561e-05 
  1.920000e+02   3.681447e-05 
  1.960000e+02   3.789108e-05 
  2.000000e+02   3.860217e-05 
  2.040000e+02   3.795161e-05 
  2.080000e+02   3.766833e-05 
  2.120000e+02   3.587772e-05 
  2.160000e+02   3.341165e-05 
  2.200000e+02   3.308679e-05 
  2.240000e+02   3.231604e-05 
  2.280000e+02   3.102065e-05 
  2.320000e+02   3.048593e-05 
  2.360000e+02   3.025777e-05 
  2.400000e+02   3.135237e-05 
  2.440000e+02   3.257069e-05 
  2.480000e+02   3.143126e-05 
  2.520000e+02   2.942972e-05 
  2.560000e+02   3.041676e-05 
  2.600000e+02   3.023136e-05 
  2.640000e+02   2.973981e-05 
  2.680000e+02   2.967527e-05 
  2.720000e+02   2.939513e-05 
  2.760000e+02   2.954565e-05 
  2.800000e+02   2.788029e-05 
  2.840000e+02   2.723920e-05 
  2.880000e+02   2.774767e-05 
  2.920000e+02   2.762115e-05 
  2.960000e+02   3.215245e-05 
  3.000000e+02   3.472766e-05 
  3.040000e+02   2.838122e-05 
  3.080000e+02   2.603197e-05 
  3.120000e+02   2.623008e-05 
  3.160000e+02   2.514038e-05 
  3.200000e+02   2.466967e-05 
  3.240000e+02   2.525180e-05 
  3.280000e+02   2.508569e-05 
  3.320000e+02   2.376736e-05 
  3.360000e+02   2.276896e-05 
  3.400000e+02   2.222651e-05 
  3.440000e+02   2.307553e-05 
  3.480000e+02   2.395468e-05 
  3.520000e+02   2.359142e-05 
  3.560000e+02   2.257296e-05 
  3.600000e+02   2.046618e-05 
  3.640000e+02   1.969144e-05 
  3.680000e+02   1.975010e-05 
  3.720000e+02   1.940006e-05 
  3.760000e+02   1.955126e-05 
  3.800000e+02   1.995963e-05 
  3.840000e+02   1.949674e-05 
  3.880000e+02   1.962797e-05 
  3.920000e+02   2.113141e-05 
  3.960000e+02   2.139783e-05 
  4.000000e+02   1.985368e-05 
  4.040000e+02   1.978614e-05 
  4.080000e+02   1.972118e-05 
  4.120000e+02   1.965106e-05 
  4.160000e+02   3.185908e-05 
  4.200000e+02   4.272691e-05 
  4.240000e+02   3.217676e-05 
  4.280000e+02   2.026461e-05 
  4.320000e+02   1.799738e-05 
  4.360000e+02   1.816783e-05 
  4.400000e+02   1.801255e-05 
  4.440000e+02   1.780946e-05 
  4.480000e+02   1.912362e-05 
  4.520000e+02   1.909287e-05 
  4.560000e+02   1.833624e-05 
  4.600000e+02   1.763351e-05 
  4.640000e+02   1.737941e-05 
  4.680000e+02   1.839647e-05 
  4.720000e+02   1.903174e-05 
  4.760000e+02   1.802357e-05 
  4.800000e+02   1.697113e-05 
  4.840000e+02   1.650703e-05 
  4.880000e+02   1.621829e-05 
  4.920000e+02   1.569967e-05 
  4.960000e+02   1.527691e-05 
  5.000000e+02   1.597688e-05 
  5.040000e+02   1.559983e-05 
  5.080000e+02   1.484672e-05 
  5.120000e+02   1.527759e-05 
  5.160000e+02   1.548119e-05 
  5.200000e+02   1.518354e-05 
  5.240000e+02   1.496006e-05 
  5.280000e+02   1.485398e-05 
  5.320000e+02   1.436219e-05 
  5.360000e+02   1.672043e-05 
  5.400000e+02   1.946814e-05 
  5.440000e+02   1.661009e-05 
  5.480000e+02   1.444897e-05 
  5.520000e+02   1.409333e-05 
  5.560000e+02   1.526807e-05 
  5.600000e+02   1.568469e-05 
  5.640000e+02   1.441733e-05 
  5.680000e+02   1.455212e-05 
  5.720000e+02   1.509235e-05 
  5.760000e+02   1.431850e-05 
  5.800000e+02   1.411219e-05 
  5.840000e+02   1.478647e-05 
  5.880000e+02   1.595199e-05 
  5.920000e+02   1.687385e-05 
  5.960000e+02   1.656900e-05 
  6.000000e+02   1.482375e-05 
  6.040000e+02   1.333662e-05 
  6.080000e+02   1.390802e-05 
  6.120000e+02   1.387275e-05 
  6.160000e+02   1.363738e-05 
  6.200000e+02   1.377766e-05 
  6.240000e+02   1.413969e-05 
  6.280000e+02   1.493174e-05 
  6.320000e+02   1.432584e-05 
  6.360000e+02   1.295142e-05 
  6.400000e+02   1.267562e-05 
  6.440000e+02   1.303762e-05 
  6.480000e+02   1.299446e-05 
  6.520000e+02   1.313424e-05 
  6.560000e+02   1.887216e-05 
  6.600000e+02   2.284337e-05 
  6.640000e+02   1.747415e-05 
  6.680000e+02   1.322804e-05 
  6.720000e+02   1.240936e-05 
  6.760000e+02   1.256853e-05 
  6.800000e+02   1.310011e-05 
  6.840000e+02   1.304282e-05 
  6.880000e+02   1.319458e-05 
  6.920000e+02   1.240687e-05 
  6.960000e+02   1.180638e-05 
  7.000000e+02   1.172107e-05 
  7.040000e+02   1.207079e-05 
  7.080000e+02   1.236704e-05 
  7.120000e+02   1.250513e-05 
  7.160000e+02   1.215647e-05 
  7.200000e+02   1.137957e-05 
  7.240000e+02   1.187599e-05 
  7.280000e+02   1.204813e-05 
  7.320000e+02   1.162976e-05 
  7.360000e+02   1.169354e-05 
  7.400000e+02   1.248520e-05 
  7.440000e+02   1.289288e-05 
  7.480000e+02   1.214597e-05 
  7.520000e+02   1.162840e-05 
  7.560000e+02   1.254139e-05 
  7.600000e+02   1.258642e-05 
  7.640000e+02   1.105645e-05 
  7.680000e+02   1.095473e-05 
  7.720000e+02   1.166938e-05 
  7.760000e+02   1.334506e-05 
  7.800000e+02   1.469194e-05 
  7.840000e+02   1.258325e-05 
  7.880000e+02   1.243430e-05 
  7.920000e+02   1.329719e-05 
  7.960000e+02   1.242104e-05 
  8.000000e+02   1.087884e-05 
  8.040000e+02   1.084632e-05 
  8.080000e+02   1.094999e-05 
  8.120000e+02   1.088031e-05 
  8.160000e+02   1.128383e-05 
  8.200000e+02   1.172864e-05 
  8.240000e+02   1.123646e-05 
  8.280000e+02   1.066651e-05 
  8.320000e+02   1.007980e-05 
  8.360000e+02   1.029653e-05 
  8.400000e+02   1.070375e-05 
  8.440000e+02   1.100891e-05 
  8.480000e+02   1.105159e-05 
  8.520000e+02   1.104035e-05 
  8.560000e+02   1.113247e-05 
  8.600000e+02   1.105648e-05 
  8.640000e+02   1.115821e-05 
  8.680000e+02   1.128232e-05 
  8.720000e+02   1.107330e-05 
  8.760000e+02   1.076323e-05 
  8.800000e+02   1.021453e-05 
  8.840000e+02   9.743505e-06 
  8.880000e+02   1.013748e-05 
  8.920000e+02   1.154524e-05 
  8.960000e+02   1.379580e-05 
  9.000000e+02   1.519459e-05 
  9.040000e+02   1.302427e-05 
  9.080000e+02   1.148660e-05 
  9.120000e+02   1.172694e-05 
  9.160000e+02   1.235135e-05 
  9.200000e+02   1.156881e-05 
  9.240000e+02   1.085030e-05 
  9.280000e+02   1.132522e-05 
  9.320000e+02   1.179477e-05 
  9.360000e+02   1.209020e-05 
  9.400000e+02   1.170069e-05 
  9.440000e+02   1.106365e-05 
  9.480000e+02   1.023879e-05 
  9.520000e+02   1.013671e-05 
  9.560000e+02   1.084464e-05 
  9.600000e+02   1.060707e-05 
  9.640000e+02   1.014534e-05 
  9.680000e+02   1.055700e-05 
  9.720000e+02   1.113107e-05 
  9.760000e+02   1.066880e-05 
  9.800000e+02   1.034695e-05 
  9.840000e+02   1.194428e-05 
  9.880000e+02   1.291441e-05 
  9.920000e+02   1.200933e-05 
  9.960000e+02   1.114909e-05 
  1.000000e+03   1.020160e-05 
  1.004000e+03   1.044739e-05 
  1.008000e+03   1.043375e-05 
  1.012000e+03   1.058319e-05 
  1.016000e+03   1.216851e-05 
  1.020000e+03   1.320546e-05 
  1.024000e+03   1.089795e-05 
  1.028000e+03   9.786875e-06 
  1.032000e+03   9.990546e-06 
  1.036000e+03   1.017012e-05 
  1.040000e+03   9.963490e-06 
  1.044000e+03   9.854881e-06 
  1.048000e+03   9.500704e-06 
  1.052000e+03   9.618307e-06 
  1.056000e+03   9.903580e-06 
  1.060000e+03   9.965906e-06 
  1.064000e+03   9.990813e-06 
  1.068000e+03   9.520780e-06 
  1.072000e+03   1.019323e-05 
  1.076000e+03   1.003942e-05 
  1.080000e+03   9.028957e-06 
  1.084000e+03   8.994593e-06 
  1.088000e+03   1.018750e-05 
  1.092000e+03   1.096652e-05 
  1.096000e+03   1.063047e-05 
  1.100000e+03   9.789808e-06 
  1.104000e+03   9.164573e-06 
  1.108000e+03   9.905100e-06 
  1.112000e+03   9.841811e-06 
  1.116000e+03   9.227103e-06 
  1.120000e+03   9.422065e-06 
  1.124000e+03   9.799644e-06 
  1.128000e+03   9.703404e-06 
  1.132000e+03   9.722577e-06 
  1.136000e+03   1.281868e-05 
  1.140000e+03   1.477999e-05 
  1.144000e+03   1.174956e-05 
  1.148000e+03   9.699437e-06 
  1.152000e+03   9.692650e-06 
  1.156000e+03   1.002617e-05 
  1.160000e+03   1.065539e-05 
  1.164000e+03   1.023205e-05 
  1.168000e+03   1.010373e-05 
  1.172000e+03   1.022473e-05 
  1.176000e+03   9.680044e-06 
  1.180000e+03   9.600931e-06 
  1.184000e+03   1.020218e-05 
  1.188000e+03   9.939132e-06 
  1.192000e+03   9.791483e-06 
  1.196000e+03   9.666810e-06 
  1.200000e+03   9.620500e-06 
  1.204000e+03   9.434697e-06 
  1.208000e+03   8.934653e-06 
  1.212000e+03   9.330768e-06 
  1.216000e+03   9.229638e-06 
  1.220000e+03   8.834101e-06 
  1.224000e+03   8.570860e-06 
  1.228000e+03   8.523594e-06 
  1.232000e+03   8.789071e-06 
  1.236000e+03   8.814996e-06 
  1.240000e+03   8.974554e-06 
  1.244000e+03   9.267399e-06 
  1.248000e+03   9.351285e-06 
  1.252000e+03   9.662198e-06 
  1.256000e+03   1.128813e-05 
  1.260000e+03   1.210615e-05 
  1.264000e+03   1.041747e-05 
  1.268000e+03   9.900449e-06 
  1.272000e+03   1.052757e-05 
  1.276000e+03   1.073219e-05 
  1.280000e+03   1.034131e-05 
  1.284000e+03   9.805287e-06 
  1.288000e+03   9.687229e-06 
  1.292000e+03   9.811854e-06 
  1.296000e+03   9.754334e-06 
  1.300000e+03   8.810593e-06 
  1.304000e+03   8.103965e-06 
  1.308000e+03   8.224808e-06 
  1.312000e+03   8.759066e-06 
  1.316000e+03   9.210812e-06 
  1.320000e+03   9.173709e-06 
  1.324000e+03   8.925186e-06 
  1.328000e+03   8.935944e-06 
  1.332000e+03   9.047869e-06 
  1.336000e+03   8.710569e-06 
  1.340000e+03   8.888684e-06 
  1.344000e+03   9.560446e-06 
  1.348000e+03   9.684346e-06 
  1.352000e+03   9.550191e-06 
  1.356000e+03   9.471913e-06 
  1.360000e+03   9.172505e-06 
  1.364000e+03   8.849809e-06 
  1.368000e+03   8.803636e-06 
  1.372000e+03   8.825278e-06 
  1.376000e+03   8.963950e-06 
  1.380000e+03   9.335651e-06 
  1.384000e+03   9.761856e-06 
  1.388000e+03   9.646596e-06 
  1.392000e+03   1.028726e-05 
  1.396000e+03   1.003680e-05 
  1.400000e+03   8.729469e-06 
  1.404000e+03   8.583467e-06 
  1.408000e+03   8.589578e-06 
  1.412000e+03   8.395823e-06 
  1.416000e+03   9.082301e-06 
  1.420000e+03   9.489989e-06 
  1.424000e+03   8.874706e-06 
  1.428000e+03   8.625791e-06 
  1.432000e+03   8.527454e-06 
  1.436000e+03   8.642058e-06 
  1.440000e+03   9.236718e-06 
  1.444000e+03   9.575268e-06 
  1.448000e+03   8.881251e-06 
  1.452000e+03   8.254246e-06 
  1.456000e+03   7.761973e-06 
  1.460000e+03   8.115219e-06 
  1.464000e+03   8.883902e-06 
  1.468000e+03   8.879055e-06 
  1.472000e+03   8.169287e-06 
  1.476000e+03   8.407778e-06 
  1.480000e+03   8.941746e-06 
  1.484000e+03   9.124227e-06 
  1.488000e+03   8.851732e-06 
  1.492000e+03   8.633944e-06 
  1.496000e+03   8.691186e-06 
  1.500000e+03   8.507704e-06 
  1.504000e+03   8.638765e-06 
  1.508000e+03   9.027829e-06 
  1.512000e+03   9.191393e-06 
  1.516000e+03   9.266631e-06 
  1.520000e+03   9.276670e-06 
  1.524000e+03   8.880356e-06 
  1.528000e+03   8.398719e-06 
  1.532000e+03   8.079222e-06 
  1.536000e+03   8.123237e-06 
  1.540000e+03   8.324485e-06 
  1.544000e+03   8.235599e-06 
  1.548000e+03   8.230902e-06 
  1.552000e+03   8.056360e-06 
  1.556000e+03   8.421694e-06 
  1.560000e+03   8.940469e-06 
  1.564000e+03   8.533241e-06 
  1.568000e+03   7.980939e-06 
  1.572000e+03   8.117479e-06 
  1.576000e+03   8.577903e-06 
  1.580000e+03   9.729963e-06 
  1.584000e+03   9.647951e-06 
  1.588000e+03   9.413106e-06 
  1.592000e+03   9.892060e-06 
  1.596000e+03   9.231579e-06 
  1.600000e+03   8.030051e-06 
