Input File: 02SN.78D
Measure Group: FFT
Measurement: FFT 1
Num of extracted Points: 801
Start Freq: -0 Hz
Span: 1.6 kHz
FFT Lines:  800 
Window: Hanning
Averaging Mode: RMS
Averaging Type: Exp. / Cont.
Number of Avg:   11
Overload reject: On

    X[Hz]      Vrms/Hz^(1/... 
  0.000000e+00   4.176223e+00 
  2.000000e+00   2.088124e+00 
  4.000000e+00   2.323423e-03 
  6.000000e+00   2.712545e-03 
  8.000000e+00   3.272079e-03 
  1.000000e+01   2.292022e-03 
  1.200000e+01   2.184855e-03 
  1.400000e+01   2.468982e-03 
  1.600000e+01   2.343231e-03 
  1.800000e+01   2.370287e-03 
  2.000000e+01   2.031543e-03 
  2.200000e+01   1.564776e-03 
  2.400000e+01   1.616042e-03 
  2.600000e+01   1.798812e-03 
  2.800000e+01   1.836938e-03 
  3.000000e+01   1.638579e-03 
  3.200000e+01   1.090822e-03 
  3.400000e+01   1.086506e-03 
  3.600000e+01   1.515185e-03 
  3.800000e+01   1.564276e-03 
  4.000000e+01   1.239184e-03 
  4.200000e+01   1.118662e-03 
  4.400000e+01   1.250288e-03 
  4.600000e+01   9.554753e-04 
  4.800000e+01   1.003583e-03 
  5.000000e+01   1.068508e-03 
  5.200000e+01   9.444985e-04 
  5.400000e+01   1.134153e-03 
  5.600000e+01   1.200946e-03 
  5.800000e+01   7.945620e-04 
  6.000000e+01   8.913155e-04 
  6.200000e+01   1.015167e-03 
  6.400000e+01   7.386000e-04 
  6.600000e+01   7.825373e-04 
  6.800000e+01   9.148840e-04 
  7.000000e+01   9.809823e-04 
  7.200000e+01   8.744121e-04 
  7.400000e+01   6.951205e-04 
  7.600000e+01   7.166446e-04 
  7.800000e+01   7.659322e-04 
  8.000000e+01   7.227831e-04 
  8.200000e+01   6.892423e-04 
  8.400000e+01   6.463102e-04 
  8.600000e+01   7.472457e-04 
  8.800000e+01   7.637860e-04 
  9.000000e+01   7.164815e-04 
  9.200000e+01   7.774400e-04 
  9.400000e+01   7.313316e-04 
  9.600000e+01   6.329130e-04 
  9.800000e+01   4.816230e-04 
  1.000000e+02   3.644229e-04 
  1.020000e+02   5.588257e-04 
  1.040000e+02   6.497620e-04 
  1.060000e+02   6.496625e-04 
  1.080000e+02   4.374679e-04 
  1.100000e+02   5.063913e-04 
  1.120000e+02   4.984261e-04 
  1.140000e+02   5.158058e-04 
  1.160000e+02   4.661431e-04 
  1.180000e+02   5.771198e-04 
  1.200000e+02   6.818624e-04 
  1.220000e+02   5.443743e-04 
  1.240000e+02   4.967893e-04 
  1.260000e+02   4.494170e-04 
  1.280000e+02   3.556306e-04 
  1.300000e+02   4.727955e-04 
  1.320000e+02   5.596789e-04 
  1.340000e+02   4.955116e-04 
  1.360000e+02   5.244642e-04 
  1.380000e+02   4.585027e-04 
  1.400000e+02   5.232272e-04 
  1.420000e+02   4.904505e-04 
  1.440000e+02   4.815414e-04 
  1.460000e+02   4.908634e-04 
  1.480000e+02   4.376674e-04 
  1.500000e+02   3.499000e-04 
  1.520000e+02   3.382103e-04 
  1.540000e+02   3.590769e-04 
  1.560000e+02   3.833816e-04 
  1.580000e+02   3.408374e-04 
  1.600000e+02   2.993250e-04 
  1.620000e+02   3.379513e-04 
  1.640000e+02   3.406681e-04 
  1.660000e+02   5.071710e-04 
  1.680000e+02   4.959012e-04 
  1.700000e+02   3.327461e-04 
  1.720000e+02   3.626359e-04 
  1.740000e+02   3.887950e-04 
  1.760000e+02   3.188103e-04 
  1.780000e+02   2.711687e-04 
  1.800000e+02   2.564967e-04 
  1.820000e+02   3.108311e-04 
  1.840000e+02   3.722771e-04 
  1.860000e+02   2.860627e-04 
  1.880000e+02   2.535144e-04 
  1.900000e+02   3.047968e-04 
  1.920000e+02   2.825401e-04 
  1.940000e+02   3.146899e-04 
  1.960000e+02   3.154735e-04 
  1.980000e+02   3.692447e-04 
  2.000000e+02   3.523747e-04 
  2.020000e+02   3.311601e-04 
  2.040000e+02   3.233301e-04 
  2.060000e+02   3.248659e-04 
  2.080000e+02   2.750086e-04 
  2.100000e+02   2.876189e-04 
  2.120000e+02   3.025333e-04 
  2.140000e+02   3.444976e-04 
  2.160000e+02   3.620222e-04 
  2.180000e+02   2.981618e-04 
  2.200000e+02   1.966335e-04 
  2.220000e+02   2.363043e-04 
  2.240000e+02   2.671899e-04 
  2.260000e+02   2.639141e-04 
  2.280000e+02   3.238589e-04 
  2.300000e+02   2.979468e-04 
  2.320000e+02   2.608215e-04 
  2.340000e+02   2.581144e-04 
  2.360000e+02   1.889865e-04 
  2.380000e+02   2.479228e-04 
  2.400000e+02   2.432177e-04 
  2.420000e+02   1.887496e-04 
  2.440000e+02   1.760270e-04 
  2.460000e+02   1.573335e-04 
  2.480000e+02   1.582909e-04 
  2.500000e+02   1.899149e-04 
  2.520000e+02   1.952339e-04 
  2.540000e+02   2.390416e-04 
  2.560000e+02   2.569617e-04 
  2.580000e+02   1.727729e-04 
  2.600000e+02   2.072269e-04 
  2.620000e+02   1.937301e-04 
  2.640000e+02   2.182107e-04 
  2.660000e+02   2.939651e-04 
  2.680000e+02   2.603286e-04 
  2.700000e+02   2.503543e-04 
  2.720000e+02   2.743321e-04 
  2.740000e+02   2.094478e-04 
  2.760000e+02   2.865177e-04 
  2.780000e+02   3.075980e-04 
  2.800000e+02   3.200087e-04 
  2.820000e+02   3.210605e-04 
  2.840000e+02   2.878192e-04 
  2.860000e+02   2.253900e-04 
  2.880000e+02   2.000045e-04 
  2.900000e+02   2.411831e-04 
  2.920000e+02   2.314621e-04 
  2.940000e+02   2.013997e-04 
  2.960000e+02   2.031657e-04 
  2.980000e+02   2.471058e-04 
  3.000000e+02   2.540906e-04 
  3.020000e+02   1.729622e-04 
  3.040000e+02   1.898746e-04 
  3.060000e+02   2.342098e-04 
  3.080000e+02   2.034273e-04 
  3.100000e+02   1.724367e-04 
  3.120000e+02   2.314983e-04 
  3.140000e+02   2.203415e-04 
  3.160000e+02   2.330314e-04 
  3.180000e+02   2.400153e-04 
  3.200000e+02   2.091515e-04 
  3.220000e+02   2.051924e-04 
  3.240000e+02   2.115213e-04 
  3.260000e+02   1.886073e-04 
  3.280000e+02   1.622101e-04 
  3.300000e+02   2.082658e-04 
  3.320000e+02   2.486198e-04 
  3.340000e+02   2.383475e-04 
  3.360000e+02   2.492729e-04 
  3.380000e+02   2.036413e-04 
  3.400000e+02   1.793997e-04 
  3.420000e+02   1.629472e-04 
  3.440000e+02   1.962063e-04 
  3.460000e+02   1.970805e-04 
  3.480000e+02   1.881203e-04 
  3.500000e+02   2.261843e-04 
  3.520000e+02   1.593192e-04 
  3.540000e+02   1.574234e-04 
  3.560000e+02   2.079364e-04 
  3.580000e+02   1.857873e-04 
  3.600000e+02   1.602452e-04 
  3.620000e+02   1.563220e-04 
  3.640000e+02   1.808678e-04 
  3.660000e+02   1.932314e-04 
  3.680000e+02   2.002578e-04 
  3.700000e+02   1.760161e-04 
  3.720000e+02   1.554067e-04 
  3.740000e+02   1.548454e-04 
  3.760000e+02   1.683124e-04 
  3.780000e+02   1.476510e-04 
  3.800000e+02   1.627820e-04 
  3.820000e+02   1.774251e-04 
  3.840000e+02   1.627461e-04 
  3.860000e+02   1.473326e-04 
  3.880000e+02   1.597484e-04 
  3.900000e+02   1.376306e-04 
  3.920000e+02   1.676541e-04 
  3.940000e+02   1.563139e-04 
  3.960000e+02   1.710411e-04 
  3.980000e+02   1.898567e-04 
  4.000000e+02   1.590288e-04 
  4.020000e+02   1.520191e-04 
  4.040000e+02   1.292466e-04 
  4.060000e+02   1.200632e-04 
  4.080000e+02   1.204429e-04 
  4.100000e+02   1.282716e-04 
  4.120000e+02   1.235625e-04 
  4.140000e+02   1.171233e-04 
  4.160000e+02   1.523939e-04 
  4.180000e+02   1.540665e-04 
  4.200000e+02   1.479908e-04 
  4.220000e+02   1.946043e-04 
  4.240000e+02   1.670941e-04 
  4.260000e+02   1.503831e-04 
  4.280000e+02   1.305982e-04 
  4.300000e+02   1.080299e-04 
  4.320000e+02   1.208978e-04 
  4.340000e+02   1.409297e-04 
  4.360000e+02   1.644302e-04 
  4.380000e+02   1.601673e-04 
  4.400000e+02   1.203217e-04 
  4.420000e+02   1.182321e-04 
  4.440000e+02   1.218206e-04 
  4.460000e+02   1.406307e-04 
  4.480000e+02   1.548950e-04 
  4.500000e+02   1.416821e-04 
  4.520000e+02   8.092244e-05 
  4.540000e+02   1.098327e-04 
  4.560000e+02   1.371087e-04 
  4.580000e+02   1.677151e-04 
  4.600000e+02   1.612191e-04 
  4.620000e+02   1.257075e-04 
  4.640000e+02   1.029100e-04 
  4.660000e+02   1.254279e-04 
  4.680000e+02   1.121477e-04 
  4.700000e+02   1.058433e-04 
  4.720000e+02   1.129806e-04 
  4.740000e+02   1.121542e-04 
  4.760000e+02   1.031472e-04 
  4.780000e+02   1.140276e-04 
  4.800000e+02   1.337947e-04 
  4.820000e+02   1.344593e-04 
  4.840000e+02   1.203060e-04 
  4.860000e+02   1.220282e-04 
  4.880000e+02   1.517089e-04 
  4.900000e+02   1.270754e-04 
  4.920000e+02   1.176657e-04 
  4.940000e+02   1.316787e-04 
  4.960000e+02   1.367213e-04 
  4.980000e+02   1.177534e-04 
  5.000000e+02   1.133240e-04 
  5.020000e+02   1.146376e-04 
  5.040000e+02   1.328435e-04 
  5.060000e+02   1.432023e-04 
  5.080000e+02   1.076267e-04 
  5.100000e+02   1.262587e-04 
  5.120000e+02   1.202130e-04 
  5.140000e+02   1.412636e-04 
  5.160000e+02   1.528617e-04 
  5.180000e+02   1.104546e-04 
  5.200000e+02   1.213223e-04 
  5.220000e+02   1.280701e-04 
  5.240000e+02   9.353534e-05 
  5.260000e+02   1.282437e-04 
  5.280000e+02   1.202213e-04 
  5.300000e+02   1.085592e-04 
  5.320000e+02   9.739338e-05 
  5.340000e+02   9.361828e-05 
  5.360000e+02   1.082871e-04 
  5.380000e+02   1.543012e-04 
  5.400000e+02   1.398374e-04 
  5.420000e+02   1.059615e-04 
  5.440000e+02   8.262439e-05 
  5.460000e+02   1.201628e-04 
  5.480000e+02   1.293565e-04 
  5.500000e+02   1.247576e-04 
  5.520000e+02   9.221981e-05 
  5.540000e+02   1.085393e-04 
  5.560000e+02   1.008997e-04 
  5.580000e+02   1.018373e-04 
  5.600000e+02   1.382236e-04 
  5.620000e+02   1.458365e-04 
  5.640000e+02   1.302463e-04 
  5.660000e+02   1.194600e-04 
  5.680000e+02   1.272606e-04 
  5.700000e+02   1.333330e-04 
  5.720000e+02   1.122219e-04 
  5.740000e+02   1.040693e-04 
  5.760000e+02   1.347315e-04 
  5.780000e+02   1.349616e-04 
  5.800000e+02   1.023541e-04 
  5.820000e+02   1.147633e-04 
  5.840000e+02   1.017991e-04 
  5.860000e+02   6.987129e-05 
  5.880000e+02   1.060076e-04 
  5.900000e+02   1.027625e-04 
  5.920000e+02   1.186173e-04 
  5.940000e+02   9.519507e-05 
  5.960000e+02   9.796680e-05 
  5.980000e+02   1.316313e-04 
  6.000000e+02   1.478013e-04 
  6.020000e+02   1.307172e-04 
  6.040000e+02   9.811504e-05 
  6.060000e+02   1.202897e-04 
  6.080000e+02   8.912088e-05 
  6.100000e+02   1.134787e-04 
  6.120000e+02   1.079166e-04 
  6.140000e+02   1.008113e-04 
  6.160000e+02   1.376366e-04 
  6.180000e+02   1.264360e-04 
  6.200000e+02   1.169417e-04 
  6.220000e+02   1.351087e-04 
  6.240000e+02   1.219583e-04 
  6.260000e+02   7.987084e-05 
  6.280000e+02   1.184596e-04 
  6.300000e+02   1.055885e-04 
  6.320000e+02   9.036239e-05 
  6.340000e+02   9.909436e-05 
  6.360000e+02   9.359180e-05 
  6.380000e+02   9.003628e-05 
  6.400000e+02   9.471054e-05 
  6.420000e+02   1.017534e-04 
  6.440000e+02   1.051122e-04 
  6.460000e+02   1.102892e-04 
  6.480000e+02   1.085634e-04 
  6.500000e+02   8.926476e-05 
  6.520000e+02   7.915792e-05 
  6.540000e+02   9.738759e-05 
  6.560000e+02   9.565584e-05 
  6.580000e+02   9.074021e-05 
  6.600000e+02   8.967465e-05 
  6.620000e+02   8.567593e-05 
  6.640000e+02   8.446899e-05 
  6.660000e+02   1.045057e-04 
  6.680000e+02   1.206523e-04 
  6.700000e+02   1.028536e-04 
  6.720000e+02   8.131184e-05 
  6.740000e+02   8.822270e-05 
  6.760000e+02   8.683398e-05 
  6.780000e+02   1.000221e-04 
  6.800000e+02   9.168965e-05 
  6.820000e+02   8.768727e-05 
  6.840000e+02   8.643424e-05 
  6.860000e+02   8.767276e-05 
  6.880000e+02   5.799684e-05 
  6.900000e+02   7.973635e-05 
  6.920000e+02   9.995679e-05 
  6.940000e+02   1.099158e-04 
  6.960000e+02   7.695294e-05 
  6.980000e+02   7.769712e-05 
  7.000000e+02   1.068070e-04 
  7.020000e+02   1.105686e-04 
  7.040000e+02   9.135513e-05 
  7.060000e+02   1.134199e-04 
  7.080000e+02   1.076103e-04 
  7.100000e+02   9.478658e-05 
  7.120000e+02   8.689515e-05 
  7.140000e+02   9.254138e-05 
  7.160000e+02   1.082593e-04 
  7.180000e+02   1.105028e-04 
  7.200000e+02   1.070349e-04 
  7.220000e+02   9.593129e-05 
  7.240000e+02   9.203226e-05 
  7.260000e+02   7.784439e-05 
  7.280000e+02   8.175651e-05 
  7.300000e+02   8.988263e-05 
  7.320000e+02   6.908789e-05 
  7.340000e+02   8.709267e-05 
  7.360000e+02   1.092267e-04 
  7.380000e+02   1.032843e-04 
  7.400000e+02   7.969257e-05 
  7.420000e+02   8.237071e-05 
  7.440000e+02   9.433318e-05 
  7.460000e+02   9.824448e-05 
  7.480000e+02   7.729189e-05 
  7.500000e+02   6.590059e-05 
  7.520000e+02   5.590495e-05 
  7.540000e+02   6.825819e-05 
  7.560000e+02   8.171272e-05 
  7.580000e+02   9.916905e-05 
  7.600000e+02   7.577708e-05 
  7.620000e+02   6.889301e-05 
  7.640000e+02   7.177724e-05 
  7.660000e+02   7.564777e-05 
  7.680000e+02   7.693822e-05 
  7.700000e+02   8.166384e-05 
  7.720000e+02   6.422248e-05 
  7.740000e+02   8.462062e-05 
  7.760000e+02   8.454597e-05 
  7.780000e+02   7.602845e-05 
  7.800000e+02   9.879962e-05 
  7.820000e+02   8.694753e-05 
  7.840000e+02   8.861378e-05 
  7.860000e+02   1.105475e-04 
  7.880000e+02   8.093446e-05 
  7.900000e+02   7.615337e-05 
  7.920000e+02   7.277942e-05 
  7.940000e+02   9.158203e-05 
  7.960000e+02   7.373877e-05 
  7.980000e+02   6.487436e-05 
  8.000000e+02   8.963430e-05 
  8.020000e+02   7.766510e-05 
  8.040000e+02   6.004503e-05 
  8.060000e+02   7.084064e-05 
  8.080000e+02   8.895559e-05 
  8.100000e+02   7.918261e-05 
  8.120000e+02   6.247436e-05 
  8.140000e+02   6.190586e-05 
  8.160000e+02   7.567221e-05 
  8.180000e+02   8.769589e-05 
  8.200000e+02   6.555307e-05 
  8.220000e+02   6.291654e-05 
  8.240000e+02   8.374270e-05 
  8.260000e+02   7.730778e-05 
  8.280000e+02   8.088375e-05 
  8.300000e+02   8.282422e-05 
  8.320000e+02   9.425974e-05 
  8.340000e+02   7.699375e-05 
  8.360000e+02   9.175669e-05 
  8.380000e+02   9.140659e-05 
  8.400000e+02   8.463601e-05 
  8.420000e+02   7.583638e-05 
  8.440000e+02   6.782807e-05 
  8.460000e+02   8.043084e-05 
  8.480000e+02   8.822200e-05 
  8.500000e+02   6.943133e-05 
  8.520000e+02   7.060154e-05 
  8.540000e+02   7.411209e-05 
  8.560000e+02   7.123615e-05 
  8.580000e+02   7.722001e-05 
  8.600000e+02   5.354339e-05 
  8.620000e+02   6.990239e-05 
  8.640000e+02   6.847104e-05 
  8.660000e+02   7.154654e-05 
  8.680000e+02   7.580197e-05 
  8.700000e+02   8.146053e-05 
  8.720000e+02   6.768345e-05 
  8.740000e+02   6.577007e-05 
  8.760000e+02   7.459851e-05 
  8.780000e+02   6.966715e-05 
  8.800000e+02   7.125156e-05 
  8.820000e+02   6.726944e-05 
  8.840000e+02   5.984124e-05 
  8.860000e+02   7.045465e-05 
  8.880000e+02   7.623291e-05 
  8.900000e+02   7.511634e-05 
  8.920000e+02   6.253721e-05 
  8.940000e+02   6.628619e-05 
  8.960000e+02   6.447455e-05 
  8.980000e+02   6.005194e-05 
  9.000000e+02   6.968930e-05 
  9.020000e+02   8.013195e-05 
  9.040000e+02   7.168896e-05 
  9.060000e+02   5.465744e-05 
  9.080000e+02   6.159855e-05 
  9.100000e+02   7.845202e-05 
  9.120000e+02   6.592015e-05 
  9.140000e+02   7.197320e-05 
  9.160000e+02   7.675745e-05 
  9.180000e+02   7.096984e-05 
  9.200000e+02   5.436174e-05 
  9.220000e+02   7.461538e-05 
  9.240000e+02   5.807597e-05 
  9.260000e+02   5.166974e-05 
  9.280000e+02   7.176125e-05 
  9.300000e+02   6.512894e-05 
  9.320000e+02   5.318998e-05 
  9.340000e+02   5.405526e-05 
  9.360000e+02   6.890314e-05 
  9.380000e+02   7.245068e-05 
  9.400000e+02   7.417887e-05 
  9.420000e+02   7.908668e-05 
  9.440000e+02   6.646339e-05 
  9.460000e+02   6.080438e-05 
  9.480000e+02   5.856510e-05 
  9.500000e+02   5.063814e-05 
  9.520000e+02   6.485633e-05 
  9.540000e+02   6.449517e-05 
  9.560000e+02   5.206698e-05 
  9.580000e+02   5.048171e-05 
  9.600000e+02   5.528408e-05 
  9.620000e+02   6.813223e-05 
  9.640000e+02   6.117088e-05 
  9.660000e+02   6.060446e-05 
  9.680000e+02   6.145317e-05 
  9.700000e+02   5.098133e-05 
  9.720000e+02   5.535071e-05 
  9.740000e+02   5.630982e-05 
  9.760000e+02   6.668172e-05 
  9.780000e+02   6.196890e-05 
  9.800000e+02   6.379126e-05 
  9.820000e+02   7.340892e-05 
  9.840000e+02   7.183920e-05 
  9.860000e+02   5.538976e-05 
  9.880000e+02   6.726567e-05 
  9.900000e+02   5.538855e-05 
  9.920000e+02   4.822286e-05 
  9.940000e+02   5.129038e-05 
  9.960000e+02   6.110932e-05 
  9.980000e+02   5.971869e-05 
  1.000000e+03   6.519660e-05 
  1.002000e+03   6.293869e-05 
  1.004000e+03   6.808034e-05 
  1.006000e+03   5.301710e-05 
  1.008000e+03   4.820125e-05 
  1.010000e+03   6.377476e-05 
  1.012000e+03   6.538996e-05 
  1.014000e+03   6.518485e-05 
  1.016000e+03   8.327053e-05 
  1.018000e+03   6.115661e-05 
  1.020000e+03   5.302471e-05 
  1.022000e+03   5.644973e-05 
  1.024000e+03   7.063402e-05 
  1.026000e+03   6.911415e-05 
  1.028000e+03   6.384594e-05 
  1.030000e+03   6.308233e-05 
  1.032000e+03   4.475142e-05 
  1.034000e+03   5.413685e-05 
  1.036000e+03   5.900766e-05 
  1.038000e+03   5.426384e-05 
  1.040000e+03   6.492482e-05 
  1.042000e+03   6.641199e-05 
  1.044000e+03   6.609179e-05 
  1.046000e+03   5.376953e-05 
  1.048000e+03   6.314694e-05 
  1.050000e+03   7.564778e-05 
  1.052000e+03   7.746855e-05 
  1.054000e+03   8.730619e-05 
  1.056000e+03   6.527357e-05 
  1.058000e+03   5.842966e-05 
  1.060000e+03   4.297482e-05 
  1.062000e+03   6.064182e-05 
  1.064000e+03   7.351038e-05 
  1.066000e+03   6.295211e-05 
  1.068000e+03   4.437953e-05 
  1.070000e+03   5.093032e-05 
  1.072000e+03   4.654974e-05 
  1.074000e+03   5.079225e-05 
  1.076000e+03   5.051754e-05 
  1.078000e+03   5.027290e-05 
  1.080000e+03   6.227806e-05 
  1.082000e+03   5.856802e-05 
  1.084000e+03   5.770391e-05 
  1.086000e+03   5.651990e-05 
  1.088000e+03   6.214729e-05 
  1.090000e+03   5.958008e-05 
  1.092000e+03   5.951253e-05 
  1.094000e+03   6.068256e-05 
  1.096000e+03   6.000216e-05 
  1.098000e+03   7.092366e-05 
  1.100000e+03   7.602865e-05 
  1.102000e+03   7.009388e-05 
  1.104000e+03   5.003563e-05 
  1.106000e+03   4.861146e-05 
  1.108000e+03   6.305015e-05 
  1.110000e+03   7.488490e-05 
  1.112000e+03   8.173364e-05 
  1.114000e+03   6.685785e-05 
  1.116000e+03   5.027189e-05 
  1.118000e+03   5.022620e-05 
  1.120000e+03   6.688915e-05 
  1.122000e+03   6.960086e-05 
  1.124000e+03   5.965129e-05 
  1.126000e+03   4.025384e-05 
  1.128000e+03   4.339689e-05 
  1.130000e+03   5.486212e-05 
  1.132000e+03   5.211141e-05 
  1.134000e+03   5.237742e-05 
  1.136000e+03   5.228739e-05 
  1.138000e+03   4.814981e-05 
  1.140000e+03   4.956333e-05 
  1.142000e+03   4.609808e-05 
  1.144000e+03   5.135118e-05 
  1.146000e+03   5.787349e-05 
  1.148000e+03   5.054737e-05 
  1.150000e+03   5.119320e-05 
  1.152000e+03   5.173700e-05 
  1.154000e+03   5.358886e-05 
  1.156000e+03   5.328701e-05 
  1.158000e+03   5.317602e-05 
  1.160000e+03   5.556841e-05 
  1.162000e+03   4.729959e-05 
  1.164000e+03   4.487579e-05 
  1.166000e+03   4.852635e-05 
  1.168000e+03   5.366771e-05 
  1.170000e+03   5.425375e-05 
  1.172000e+03   4.167778e-05 
  1.174000e+03   4.247540e-05 
  1.176000e+03   5.140370e-05 
  1.178000e+03   6.698460e-05 
  1.180000e+03   5.720275e-05 
  1.182000e+03   5.570387e-05 
  1.184000e+03   5.828620e-05 
  1.186000e+03   5.548151e-05 
  1.188000e+03   4.791951e-05 
  1.190000e+03   4.790849e-05 
  1.192000e+03   5.115602e-05 
  1.194000e+03   7.475169e-05 
  1.196000e+03   7.375505e-05 
  1.198000e+03   7.251280e-05 
  1.200000e+03   7.116589e-05 
  1.202000e+03   5.427935e-05 
  1.204000e+03   5.758421e-05 
  1.206000e+03   5.395991e-05 
  1.208000e+03   6.625216e-05 
  1.210000e+03   4.880143e-05 
  1.212000e+03   4.139457e-05 
  1.214000e+03   4.669976e-05 
  1.216000e+03   4.455296e-05 
  1.218000e+03   3.917770e-05 
  1.220000e+03   4.621315e-05 
  1.222000e+03   4.221233e-05 
  1.224000e+03   4.826819e-05 
  1.226000e+03   5.352257e-05 
  1.228000e+03   4.887638e-05 
  1.230000e+03   5.652699e-05 
  1.232000e+03   6.150045e-05 
  1.234000e+03   6.150857e-05 
  1.236000e+03   5.649884e-05 
  1.238000e+03   3.659825e-05 
  1.240000e+03   5.222111e-05 
  1.242000e+03   4.711133e-05 
  1.244000e+03   4.796054e-05 
  1.246000e+03   5.661088e-05 
  1.248000e+03   4.893019e-05 
  1.250000e+03   5.347707e-05 
  1.252000e+03   7.164445e-05 
  1.254000e+03   5.781654e-05 
  1.256000e+03   4.345325e-05 
  1.258000e+03   4.812904e-05 
  1.260000e+03   5.565376e-05 
  1.262000e+03   5.335204e-05 
  1.264000e+03   4.671776e-05 
  1.266000e+03   4.639315e-05 
  1.268000e+03   6.312832e-05 
  1.270000e+03   5.092641e-05 
  1.272000e+03   5.760681e-05 
  1.274000e+03   6.186615e-05 
  1.276000e+03   4.843816e-05 
  1.278000e+03   4.436329e-05 
  1.280000e+03   4.981238e-05 
  1.282000e+03   3.962893e-05 
  1.284000e+03   5.369644e-05 
  1.286000e+03   6.472909e-05 
  1.288000e+03   7.117318e-05 
  1.290000e+03   5.261478e-05 
  1.292000e+03   4.165748e-05 
  1.294000e+03   4.532673e-05 
  1.296000e+03   4.221944e-05 
  1.298000e+03   4.367804e-05 
  1.300000e+03   3.669944e-05 
  1.302000e+03   3.705506e-05 
  1.304000e+03   3.686987e-05 
  1.306000e+03   4.210116e-05 
  1.308000e+03   4.754160e-05 
  1.310000e+03   5.375541e-05 
  1.312000e+03   4.097461e-05 
  1.314000e+03   4.048688e-05 
  1.316000e+03   4.750260e-05 
  1.318000e+03   3.687993e-05 
  1.320000e+03   4.499323e-05 
  1.322000e+03   4.495211e-05 
  1.324000e+03   4.600251e-05 
  1.326000e+03   4.958625e-05 
  1.328000e+03   4.799365e-05 
  1.330000e+03   5.138233e-05 
  1.332000e+03   5.335109e-05 
  1.334000e+03   5.132708e-05 
  1.336000e+03   5.496656e-05 
  1.338000e+03   4.390723e-05 
  1.340000e+03   4.795344e-05 
  1.342000e+03   4.277194e-05 
  1.344000e+03   3.860506e-05 
  1.346000e+03   4.432158e-05 
  1.348000e+03   5.097451e-05 
  1.350000e+03   5.290521e-05 
  1.352000e+03   5.232059e-05 
  1.354000e+03   3.706464e-05 
  1.356000e+03   4.480041e-05 
  1.358000e+03   5.314617e-05 
  1.360000e+03   5.483985e-05 
  1.362000e+03   5.057227e-05 
  1.364000e+03   4.158583e-05 
  1.366000e+03   3.611602e-05 
  1.368000e+03   4.408214e-05 
  1.370000e+03   3.864800e-05 
  1.372000e+03   4.591090e-05 
  1.374000e+03   3.699523e-05 
  1.376000e+03   5.188260e-05 
  1.378000e+03   6.584336e-05 
  1.380000e+03   5.737304e-05 
  1.382000e+03   4.614761e-05 
  1.384000e+03   3.559117e-05 
  1.386000e+03   4.526843e-05 
  1.388000e+03   4.966593e-05 
  1.390000e+03   5.144983e-05 
  1.392000e+03   5.571442e-05 
  1.394000e+03   4.812024e-05 
  1.396000e+03   3.911322e-05 
  1.398000e+03   3.248479e-05 
  1.400000e+03   3.742991e-05 
  1.402000e+03   4.770612e-05 
  1.404000e+03   4.386442e-05 
  1.406000e+03   4.089862e-05 
  1.408000e+03   3.930240e-05 
  1.410000e+03   4.684105e-05 
  1.412000e+03   4.837309e-05 
  1.414000e+03   4.941543e-05 
  1.416000e+03   5.280258e-05 
  1.418000e+03   4.717238e-05 
  1.420000e+03   5.451016e-05 
  1.422000e+03   5.346471e-05 
  1.424000e+03   5.194751e-05 
  1.426000e+03   4.008457e-05 
  1.428000e+03   3.931154e-05 
  1.430000e+03   4.029434e-05 
  1.432000e+03   4.115581e-05 
  1.434000e+03   4.102177e-05 
  1.436000e+03   4.548493e-05 
  1.438000e+03   4.558738e-05 
  1.440000e+03   4.342328e-05 
  1.442000e+03   3.219743e-05 
  1.444000e+03   4.494721e-05 
  1.446000e+03   3.797824e-05 
  1.448000e+03   3.802511e-05 
  1.450000e+03   5.380356e-05 
  1.452000e+03   3.984446e-05 
  1.454000e+03   3.887710e-05 
  1.456000e+03   3.429887e-05 
  1.458000e+03   4.350748e-05 
  1.460000e+03   5.363005e-05 
  1.462000e+03   4.014083e-05 
  1.464000e+03   3.928133e-05 
  1.466000e+03   4.938804e-05 
  1.468000e+03   4.281637e-05 
  1.470000e+03   3.990032e-05 
  1.472000e+03   3.552939e-05 
  1.474000e+03   4.178381e-05 
  1.476000e+03   4.405855e-05 
  1.478000e+03   4.981008e-05 
  1.480000e+03   4.846623e-05 
  1.482000e+03   3.974367e-05 
  1.484000e+03   3.353259e-05 
  1.486000e+03   4.448782e-05 
  1.488000e+03   4.824782e-05 
  1.490000e+03   3.556475e-05 
  1.492000e+03   3.885550e-05 
  1.494000e+03   4.108610e-05 
  1.496000e+03   4.938832e-05 
  1.498000e+03   4.478022e-05 
  1.500000e+03   4.548071e-05 
  1.502000e+03   4.651316e-05 
  1.504000e+03   5.526752e-05 
  1.506000e+03   4.910973e-05 
  1.508000e+03   5.897718e-05 
  1.510000e+03   4.919293e-05 
  1.512000e+03   3.697265e-05 
  1.514000e+03   3.415252e-05 
  1.516000e+03   4.122714e-05 
  1.518000e+03   4.293622e-05 
  1.520000e+03   4.344477e-05 
  1.522000e+03   4.122155e-05 
  1.524000e+03   3.927341e-05 
  1.526000e+03   3.447040e-05 
  1.528000e+03   3.590201e-05 
  1.530000e+03   3.797515e-05 
  1.532000e+03   4.178230e-05 
  1.534000e+03   4.094586e-05 
  1.536000e+03   3.754360e-05 
  1.538000e+03   3.624489e-05 
  1.540000e+03   3.849204e-05 
  1.542000e+03   4.107584e-05 
  1.544000e+03   4.782490e-05 
  1.546000e+03   4.538282e-05 
  1.548000e+03   4.146413e-05 
  1.550000e+03   4.002544e-05 
  1.552000e+03   3.627183e-05 
  1.554000e+03   4.216542e-05 
  1.556000e+03   3.908583e-05 
  1.558000e+03   4.237569e-05 
  1.560000e+03   4.115570e-05 
  1.562000e+03   4.471438e-05 
  1.564000e+03   4.818650e-05 
  1.566000e+03   4.901182e-05 
  1.568000e+03   5.013543e-05 
  1.570000e+03   5.199558e-05 
  1.572000e+03   3.985899e-05 
  1.574000e+03   4.131006e-05 
  1.576000e+03   3.859664e-05 
  1.578000e+03   4.407058e-05 
  1.580000e+03   4.395606e-05 
  1.582000e+03   4.183389e-05 
  1.584000e+03   3.879689e-05 
  1.586000e+03   4.029762e-05 
  1.588000e+03   4.572174e-05 
  1.590000e+03   4.473053e-05 
  1.592000e+03   4.074310e-05 
  1.594000e+03   3.907319e-05 
  1.596000e+03   3.970411e-05 
  1.598000e+03   4.215134e-05 
  1.600000e+03   3.543979e-05 
