Input File: 02TFDH.78D
Measure Group: Swept Sine
Measurement: Freq. Resp.
Num of extracted Points: 200
Start Freq.: 100 kHz
Stop  Freq.: 1 kHz
Sweep Type: Log
Auto Level: Off
Amplitude:  20.0 mV
Source Ramping: Off
Source Offset:   0.0 mV
Settle Time:   7.8125 ms
Settle Cycles:   10
Integration Time:   15.625 ms
Integration Cycles:   20

    X[Hz]          P[deg]     
  1.000000e+03   8.904971e+01 
  1.023411e+03   9.023094e+01 
  1.047371e+03   9.260203e+01 
  1.071891e+03   9.337466e+01 
  1.096986e+03   9.008123e+01 
  1.122668e+03   9.417805e+01 
  1.148951e+03   9.330019e+01 
  1.175850e+03   9.099689e+01 
  1.203378e+03   9.247694e+01 
  1.231551e+03   9.311688e+01 
  1.260383e+03   9.099936e+01 
  1.289890e+03   9.138882e+01 
  1.320088e+03   9.037041e+01 
  1.350994e+03   9.158781e+01 
  1.382622e+03   8.651867e+01 
  1.414991e+03   8.824667e+01 
  1.448118e+03   9.088284e+01 
  1.482021e+03   9.086877e+01 
  1.516717e+03   9.017927e+01 
  1.552225e+03   9.034870e+01 
  1.588565e+03   8.814647e+01 
  1.625756e+03   8.951957e+01 
  1.663817e+03   9.159214e+01 
  1.702769e+03   9.002363e+01 
  1.742633e+03   8.896004e+01 
  1.783431e+03   8.944578e+01 
  1.825183e+03   9.070702e+01 
  1.867914e+03   8.691381e+01 
  1.911644e+03   9.033699e+01 
  1.956398e+03   9.146278e+01 
  2.002200e+03   8.881738e+01 
  2.049075e+03   8.796098e+01 
  2.097046e+03   9.129131e+01 
  2.146141e+03   8.839480e+01 
  2.196385e+03   8.786090e+01 
  2.247806e+03   9.274583e+01 
  2.300430e+03   8.698759e+01 
  2.354286e+03   8.823000e+01 
  2.409404e+03   8.864116e+01 
  2.465811e+03   9.026381e+01 
  2.523539e+03   8.969092e+01 
  2.582619e+03   8.863785e+01 
  2.643082e+03   8.986694e+01 
  2.704960e+03   8.912865e+01 
  2.768287e+03   8.650881e+01 
  2.833096e+03   8.733767e+01 
  2.899423e+03   8.782551e+01 
  2.967302e+03   8.729684e+01 
  3.036771e+03   8.804633e+01 
  3.107866e+03   8.844496e+01 
  3.180626e+03   8.772553e+01 
  3.255089e+03   8.804938e+01 
  3.331295e+03   8.743304e+01 
  3.409285e+03   8.801088e+01 
  3.489101e+03   8.688114e+01 
  3.570786e+03   8.797809e+01 
  3.654383e+03   8.880491e+01 
  3.739937e+03   8.714217e+01 
  3.827494e+03   8.915440e+01 
  3.917102e+03   8.652394e+01 
  4.008806e+03   8.819881e+01 
  4.102658e+03   8.611532e+01 
  4.198707e+03   8.769959e+01 
  4.297005e+03   8.741261e+01 
  4.397604e+03   8.729780e+01 
  4.500558e+03   8.534682e+01 
  4.605922e+03   8.553909e+01 
  4.713753e+03   8.655991e+01 
  4.824109e+03   8.553194e+01 
  4.937048e+03   8.469281e+01 
  5.052631e+03   8.425879e+01 
  5.170920e+03   8.538321e+01 
  5.291979e+03   8.523415e+01 
  5.415872e+03   8.314465e+01 
  5.542665e+03   8.280869e+01 
  5.672426e+03   8.436762e+01 
  5.805226e+03   8.347591e+01 
  5.941134e+03   8.412644e+01 
  6.080224e+03   8.443676e+01 
  6.222571e+03   8.562022e+01 
  6.368250e+03   8.353122e+01 
  6.517340e+03   8.481683e+01 
  6.669919e+03   8.387021e+01 
  6.826072e+03   8.204087e+01 
  6.985880e+03   8.215778e+01 
  7.149429e+03   8.255476e+01 
  7.316807e+03   8.049076e+01 
  7.488104e+03   8.281526e+01 
  7.663411e+03   8.200788e+01 
  7.842822e+03   8.126902e+01 
  8.026434e+03   7.959595e+01 
  8.214344e+03   8.106388e+01 
  8.406653e+03   7.962525e+01 
  8.603465e+03   8.150328e+01 
  8.804884e+03   7.809355e+01 
  9.011019e+03   7.998971e+01 
  9.221979e+03   8.241161e+01 
  9.437878e+03   7.983202e+01 
  9.658832e+03   7.827276e+01 
  9.884959e+03   7.745097e+01 
  1.011638e+04   7.978767e+01 
  1.035322e+04   7.817049e+01 
  1.059560e+04   7.837452e+01 
  1.084366e+04   7.702718e+01 
  1.109753e+04   7.810289e+01 
  1.135733e+04   7.738482e+01 
  1.162322e+04   7.797747e+01 
  1.189534e+04   7.497670e+01 
  1.217383e+04   7.683029e+01 
  1.245883e+04   7.571845e+01 
  1.275051e+04   7.474592e+01 
  1.304902e+04   7.378920e+01 
  1.335452e+04   7.246394e+01 
  1.366716e+04   7.361311e+01 
  1.398713e+04   7.059022e+01 
  1.431459e+04   7.119141e+01 
  1.464971e+04   7.308932e+01 
  1.499268e+04   7.181045e+01 
  1.534368e+04   7.064695e+01 
  1.570290e+04   6.812354e+01 
  1.607053e+04   7.035265e+01 
  1.644676e+04   6.944722e+01 
  1.683180e+04   6.737963e+01 
  1.722586e+04   6.768050e+01 
  1.762914e+04   6.886488e+01 
  1.804186e+04   6.720154e+01 
  1.846425e+04   6.717953e+01 
  1.889652e+04   6.606799e+01 
  1.933892e+04   6.556348e+01 
  1.979167e+04   6.404822e+01 
  2.025502e+04   6.421815e+01 
  2.072922e+04   6.308747e+01 
  2.121452e+04   6.203477e+01 
  2.171118e+04   6.310970e+01 
  2.221947e+04   6.040541e+01 
  2.273966e+04   6.074471e+01 
  2.327203e+04   5.850465e+01 
  2.381686e+04   5.821269e+01 
  2.437444e+04   5.874762e+01 
  2.494508e+04   5.722618e+01 
  2.552908e+04   5.710220e+01 
  2.612675e+04   5.621099e+01 
  2.673842e+04   5.597437e+01 
  2.736440e+04   5.322522e+01 
  2.800504e+04   5.222082e+01 
  2.866068e+04   5.202637e+01 
  2.933166e+04   5.001859e+01 
  3.001836e+04   4.865428e+01 
  3.072113e+04   5.085431e+01 
  3.144036e+04   4.834257e+01 
  3.217642e+04   4.699067e+01 
  3.292971e+04   4.605687e+01 
  3.370064e+04   4.388980e+01 
  3.448962e+04   4.215638e+01 
  3.529707e+04   4.136643e+01 
  3.612343e+04   4.062609e+01 
  3.696913e+04   3.917742e+01 
  3.783462e+04   3.778031e+01 
  3.872039e+04   3.597607e+01 
  3.962689e+04   3.419694e+01 
  4.055461e+04   3.339668e+01 
  4.150405e+04   3.149606e+01 
  4.247571e+04   3.012708e+01 
  4.347013e+04   2.854033e+01 
  4.448783e+04   2.679661e+01 
  4.552935e+04   2.527894e+01 
  4.659526e+04   2.375891e+01 
  4.768612e+04   2.164946e+01 
  4.880252e+04   1.995655e+01 
  4.994505e+04   1.776538e+01 
  5.111434e+04   1.642773e+01 
  5.231099e+04   1.394815e+01 
  5.353567e+04   1.275751e+01 
  5.478901e+04   9.853286e+00 
  5.607170e+04   7.573508e+00 
  5.738442e+04   5.647511e+00 
  5.872787e+04   3.390938e+00 
  6.010277e+04   1.170780e+00 
  6.150986e+04  -1.811057e+00 
  6.294989e+04  -3.271367e+00 
  6.442364e+04  -6.130134e+00 
  6.593188e+04  -1.045075e+01 
  6.747544e+04  -1.113964e+01 
  6.905513e+04  -1.256280e+01 
  7.067181e+04  -1.764667e+01 
  7.232634e+04  -2.324370e+01 
  7.401960e+04  -2.516660e+01 
  7.575250e+04  -2.808994e+01 
  7.752598e+04  -2.935705e+01 
  7.934097e+04  -3.419291e+01 
  8.119845e+04  -3.456590e+01 
  8.309942e+04  -4.527734e+01 
  8.504489e+04  -4.266476e+01 
  8.703591e+04  -4.327690e+01 
  8.907355e+04  -4.932215e+01 
  9.115888e+04  -5.380659e+01 
  9.329304e+04  -5.414510e+01 
  9.547716e+04  -6.010910e+01 
  9.771241e+04  -6.789700e+01 
  1.000000e+05  -6.452306e+01 
