Input File: 20NSIN.78D
Measure Group: FFT
Measurement: FFT 1
Num of extracted Points: 801
Start Freq: -0 Hz
Span: 1.6 kHz
FFT Lines:  800 
Window: BMH
Averaging Mode: RMS
Averaging Type: Exp. / Cont.
Number of Avg:   10
Overload reject: Off

    X[Hz]      Vrms/Hz^(1/... 
  0.000000e+00   5.253230e-04 
  2.000000e+00   3.574939e-04 
  4.000000e+00   1.034434e-04 
  6.000000e+00   8.595818e-06 
  8.000000e+00   4.479587e-07 
  1.000000e+01   3.197997e-07 
  1.200000e+01   2.339315e-07 
  1.400000e+01   2.181153e-07 
  1.600000e+01   1.689829e-07 
  1.800000e+01   1.181334e-07 
  2.000000e+01   1.147300e-07 
  2.200000e+01   1.277978e-07 
  2.400000e+01   1.258070e-07 
  2.600000e+01   1.097381e-07 
  2.800000e+01   9.765107e-08 
  3.000000e+01   8.805920e-08 
  3.200000e+01   6.703401e-08 
  3.400000e+01   5.666508e-08 
  3.600000e+01   6.065914e-08 
  3.800000e+01   6.415621e-08 
  4.000000e+01   6.094518e-08 
  4.200000e+01   5.848012e-08 
  4.400000e+01   5.610671e-08 
  4.600000e+01   5.197862e-08 
  4.800000e+01   5.021703e-08 
  5.000000e+01   4.796266e-08 
  5.200000e+01   5.027366e-08 
  5.400000e+01   6.237947e-07 
  5.600000e+01   7.327321e-06 
  5.800000e+01   2.507618e-05 
  6.000000e+01   3.656475e-05 
  6.200000e+01   2.469157e-05 
  6.400000e+01   7.074506e-06 
  6.600000e+01   5.799094e-07 
  6.800000e+01   4.536096e-08 
  7.000000e+01   3.977899e-08 
  7.200000e+01   3.437898e-08 
  7.400000e+01   3.745880e-08 
  7.600000e+01   3.811722e-08 
  7.800000e+01   3.613176e-08 
  8.000000e+01   3.425082e-08 
  8.200000e+01   3.418886e-08 
  8.400000e+01   3.134497e-08 
  8.600000e+01   2.422738e-08 
  8.800000e+01   2.729669e-08 
  9.000000e+01   3.235941e-08 
  9.200000e+01   3.179398e-08 
  9.400000e+01   2.946345e-08 
  9.600000e+01   3.110198e-08 
  9.800000e+01   3.096862e-08 
  1.000000e+02   2.849989e-08 
  1.020000e+02   2.898701e-08 
  1.040000e+02   3.201831e-08 
  1.060000e+02   3.198126e-08 
  1.080000e+02   3.111539e-08 
  1.100000e+02   2.967206e-08 
  1.120000e+02   3.086434e-08 
  1.140000e+02   3.534055e-08 
  1.160000e+02   1.207388e-07 
  1.180000e+02   3.865832e-07 
  1.200000e+02   5.559132e-07 
  1.220000e+02   3.716891e-07 
  1.240000e+02   1.080765e-07 
  1.260000e+02   3.268464e-08 
  1.280000e+02   3.043101e-08 
  1.300000e+02   3.059750e-08 
  1.320000e+02   3.141431e-08 
  1.340000e+02   2.760719e-08 
  1.360000e+02   2.529986e-08 
  1.380000e+02   2.568246e-08 
  1.400000e+02   2.479932e-08 
  1.420000e+02   2.639712e-08 
  1.440000e+02   2.734549e-08 
  1.460000e+02   3.030350e-08 
  1.480000e+02   3.229503e-08 
  1.500000e+02   2.657018e-08 
  1.520000e+02   2.771436e-08 
  1.540000e+02   2.911956e-08 
  1.560000e+02   2.948807e-08 
  1.580000e+02   3.053292e-08 
  1.600000e+02   2.909138e-08 
  1.620000e+02   2.943087e-08 
  1.640000e+02   2.954509e-08 
  1.660000e+02   2.646117e-08 
  1.680000e+02   2.538669e-08 
  1.700000e+02   2.557805e-08 
  1.720000e+02   2.758065e-08 
  1.740000e+02   1.163560e-07 
  1.760000e+02   1.333958e-06 
  1.780000e+02   4.486902e-06 
  1.800000e+02   6.440599e-06 
  1.820000e+02   4.280874e-06 
  1.840000e+02   1.205149e-06 
  1.860000e+02   1.006234e-07 
  1.880000e+02   2.531004e-08 
  1.900000e+02   2.535769e-08 
  1.920000e+02   2.579250e-08 
  1.940000e+02   2.547633e-08 
  1.960000e+02   2.407582e-08 
  1.980000e+02   2.630528e-08 
  2.000000e+02   2.651905e-08 
  2.020000e+02   2.996403e-08 
  2.040000e+02   2.943540e-08 
  2.060000e+02   3.054490e-08 
  2.080000e+02   3.011268e-08 
  2.100000e+02   3.024055e-08 
  2.120000e+02   3.172399e-08 
  2.140000e+02   3.079249e-08 
  2.160000e+02   2.995716e-08 
  2.180000e+02   2.589544e-08 
  2.200000e+02   2.401039e-08 
  2.220000e+02   2.782952e-08 
  2.240000e+02   2.505979e-08 
  2.260000e+02   2.382762e-08 
  2.280000e+02   2.229899e-08 
  2.300000e+02   2.129300e-08 
  2.320000e+02   2.196166e-08 
  2.340000e+02   2.872712e-08 
  2.360000e+02   7.228094e-08 
  2.380000e+02   2.220950e-07 
  2.400000e+02   3.165292e-07 
  2.420000e+02   2.119122e-07 
  2.440000e+02   6.575995e-08 
  2.460000e+02   2.845327e-08 
  2.480000e+02   2.890895e-08 
  2.500000e+02   2.869237e-08 
  2.520000e+02   3.071576e-08 
  2.540000e+02   2.977098e-08 
  2.560000e+02   3.027190e-08 
  2.580000e+02   3.275676e-08 
  2.600000e+02   3.423409e-08 
  2.620000e+02   3.027694e-08 
  2.640000e+02   2.619739e-08 
  2.660000e+02   2.954270e-08 
  2.680000e+02   2.932410e-08 
  2.700000e+02   2.571042e-08 
  2.720000e+02   2.243264e-08 
  2.740000e+02   2.224709e-08 
  2.760000e+02   2.622284e-08 
  2.780000e+02   2.398864e-08 
  2.800000e+02   2.035181e-08 
  2.820000e+02   2.166245e-08 
  2.840000e+02   2.579149e-08 
  2.860000e+02   2.826510e-08 
  2.880000e+02   2.835203e-08 
  2.900000e+02   3.054739e-08 
  2.920000e+02   3.357206e-08 
  2.940000e+02   8.154178e-08 
  2.960000e+02   9.154287e-07 
  2.980000e+02   3.037441e-06 
  3.000000e+02   4.299893e-06 
  3.020000e+02   2.814811e-06 
  3.040000e+02   7.727964e-07 
  3.060000e+02   6.167848e-08 
  3.080000e+02   3.119163e-08 
  3.100000e+02   3.133502e-08 
  3.120000e+02   2.927836e-08 
  3.140000e+02   2.664171e-08 
  3.160000e+02   2.603420e-08 
  3.180000e+02   2.729038e-08 
  3.200000e+02   2.693884e-08 
  3.220000e+02   2.696586e-08 
  3.240000e+02   2.874371e-08 
  3.260000e+02   3.056601e-08 
  3.280000e+02   2.757784e-08 
  3.300000e+02   2.531861e-08 
  3.320000e+02   2.769502e-08 
  3.340000e+02   3.096911e-08 
  3.360000e+02   2.760467e-08 
  3.380000e+02   2.669448e-08 
  3.400000e+02   2.972154e-08 
  3.420000e+02   3.436472e-08 
  3.440000e+02   3.737908e-08 
  3.460000e+02   3.363586e-08 
  3.480000e+02   2.961150e-08 
  3.500000e+02   3.098270e-08 
  3.520000e+02   3.146479e-08 
  3.540000e+02   2.751211e-08 
  3.560000e+02   5.820502e-08 
  3.580000e+02   1.838197e-07 
  3.600000e+02   2.597777e-07 
  3.620000e+02   1.745553e-07 
  3.640000e+02   5.942048e-08 
  3.660000e+02   2.945210e-08 
  3.680000e+02   2.740232e-08 
  3.700000e+02   2.673525e-08 
  3.720000e+02   2.663166e-08 
  3.740000e+02   2.662915e-08 
  3.760000e+02   2.571423e-08 
  3.780000e+02   2.493609e-08 
  3.800000e+02   3.119719e-08 
  3.820000e+02   3.591749e-08 
  3.840000e+02   3.557736e-08 
  3.860000e+02   3.344850e-08 
  3.880000e+02   3.032412e-08 
  3.900000e+02   2.902996e-08 
  3.920000e+02   2.819307e-08 
  3.940000e+02   3.163500e-08 
  3.960000e+02   3.750185e-08 
  3.980000e+02   3.521918e-08 
  4.000000e+02   3.069615e-08 
  4.020000e+02   3.265841e-08 
  4.040000e+02   3.374175e-08 
  4.060000e+02   3.315506e-08 
  4.080000e+02   3.391003e-08 
  4.100000e+02   3.243169e-08 
  4.120000e+02   2.940465e-08 
  4.140000e+02   9.135355e-08 
  4.160000e+02   9.186184e-07 
  4.180000e+02   2.959439e-06 
  4.200000e+02   4.115896e-06 
  4.220000e+02   2.651493e-06 
  4.240000e+02   7.172671e-07 
  4.260000e+02   6.018534e-08 
  4.280000e+02   2.351115e-08 
  4.300000e+02   2.785471e-08 
  4.320000e+02   3.151393e-08 
  4.340000e+02   3.207483e-08 
  4.360000e+02   3.014651e-08 
  4.380000e+02   3.083955e-08 
  4.400000e+02   3.266314e-08 
  4.420000e+02   3.238487e-08 
  4.440000e+02   3.054965e-08 
  4.460000e+02   2.630750e-08 
  4.480000e+02   2.620434e-08 
  4.500000e+02   2.938243e-08 
  4.520000e+02   2.983523e-08 
  4.540000e+02   3.160133e-08 
  4.560000e+02   3.214711e-08 
  4.580000e+02   3.038479e-08 
  4.600000e+02   3.070346e-08 
  4.620000e+02   2.960771e-08 
  4.640000e+02   2.772975e-08 
  4.660000e+02   2.674926e-08 
  4.680000e+02   2.782076e-08 
  4.700000e+02   2.787942e-08 
  4.720000e+02   2.342879e-08 
  4.740000e+02   2.804595e-08 
  4.760000e+02   3.795916e-08 
  4.780000e+02   8.764772e-08 
  4.800000e+02   1.237196e-07 
  4.820000e+02   8.447056e-08 
  4.840000e+02   3.443215e-08 
  4.860000e+02   2.441509e-08 
  4.880000e+02   2.609263e-08 
  4.900000e+02   3.352044e-08 
  4.920000e+02   3.422346e-08 
  4.940000e+02   3.060106e-08 
  4.960000e+02   2.702067e-08 
  4.980000e+02   2.320582e-08 
  5.000000e+02   2.507267e-08 
  5.020000e+02   3.039702e-08 
  5.040000e+02   2.972947e-08 
  5.060000e+02   2.773670e-08 
  5.080000e+02   2.973595e-08 
  5.100000e+02   3.197508e-08 
  5.120000e+02   3.486345e-08 
  5.140000e+02   3.419575e-08 
  5.160000e+02   3.263883e-08 
  5.180000e+02   3.119082e-08 
  5.200000e+02   3.269882e-08 
  5.220000e+02   3.102474e-08 
  5.240000e+02   3.094654e-08 
  5.260000e+02   3.128537e-08 
  5.280000e+02   3.117640e-08 
  5.300000e+02   3.095047e-08 
  5.320000e+02   3.074370e-08 
  5.340000e+02   7.079295e-08 
  5.360000e+02   6.424401e-07 
  5.380000e+02   2.031393e-06 
  5.400000e+02   2.785929e-06 
  5.420000e+02   1.772206e-06 
  5.440000e+02   4.752154e-07 
  5.460000e+02   4.715695e-08 
  5.480000e+02   2.849335e-08 
  5.500000e+02   2.980673e-08 
  5.520000e+02   3.099005e-08 
  5.540000e+02   3.132384e-08 
  5.560000e+02   3.193257e-08 
  5.580000e+02   3.137592e-08 
  5.600000e+02   3.338433e-08 
  5.620000e+02   3.648256e-08 
  5.640000e+02   3.558480e-08 
  5.660000e+02   3.405463e-08 
  5.680000e+02   3.308588e-08 
  5.700000e+02   2.828425e-08 
  5.720000e+02   2.986991e-08 
  5.740000e+02   3.390678e-08 
  5.760000e+02   2.978946e-08 
  5.780000e+02   2.640597e-08 
  5.800000e+02   2.581067e-08 
  5.820000e+02   2.665421e-08 
  5.840000e+02   3.280766e-08 
  5.860000e+02   3.432821e-08 
  5.880000e+02   3.289387e-08 
  5.900000e+02   3.817009e-08 
  5.920000e+02   3.950234e-08 
  5.940000e+02   3.465490e-08 
  5.960000e+02   6.134475e-08 
  5.980000e+02   1.712548e-07 
  6.000000e+02   2.320966e-07 
  6.020000e+02   1.476580e-07 
  6.040000e+02   4.722691e-08 
  6.060000e+02   3.144182e-08 
  6.080000e+02   3.425070e-08 
  6.100000e+02   3.511387e-08 
  6.120000e+02   3.701335e-08 
  6.140000e+02   3.698631e-08 
  6.160000e+02   3.641170e-08 
  6.180000e+02   3.607434e-08 
  6.200000e+02   3.399254e-08 
  6.220000e+02   2.968173e-08 
  6.240000e+02   2.995435e-08 
  6.260000e+02   3.109121e-08 
  6.280000e+02   3.390853e-08 
  6.300000e+02   3.574150e-08 
  6.320000e+02   3.607254e-08 
  6.340000e+02   3.201842e-08 
  6.360000e+02   3.248460e-08 
  6.380000e+02   3.328832e-08 
  6.400000e+02   2.847167e-08 
  6.420000e+02   2.622113e-08 
  6.440000e+02   3.519436e-08 
  6.460000e+02   4.072229e-08 
  6.480000e+02   4.416713e-08 
  6.500000e+02   5.780411e-08 
  6.520000e+02   4.913183e-08 
  6.540000e+02   6.640537e-08 
  6.560000e+02   6.494347e-07 
  6.580000e+02   2.036578e-06 
  6.600000e+02   2.750385e-06 
  6.620000e+02   1.714295e-06 
  6.640000e+02   4.412785e-07 
  6.660000e+02   4.607456e-08 
  6.680000e+02   3.602981e-08 
  6.700000e+02   3.236119e-08 
  6.720000e+02   2.924359e-08 
  6.740000e+02   2.965757e-08 
  6.760000e+02   2.701450e-08 
  6.780000e+02   2.546472e-08 
  6.800000e+02   2.824463e-08 
  6.820000e+02   3.910310e-08 
  6.840000e+02   4.794224e-08 
  6.860000e+02   5.303476e-08 
  6.880000e+02   4.786310e-08 
  6.900000e+02   4.589397e-08 
  6.920000e+02   4.423340e-08 
  6.940000e+02   3.629917e-08 
  6.960000e+02   3.182021e-08 
  6.980000e+02   3.300640e-08 
  7.000000e+02   3.011968e-08 
  7.020000e+02   2.853278e-08 
  7.040000e+02   4.342397e-08 
  7.060000e+02   5.943098e-08 
  7.080000e+02   5.107794e-08 
  7.100000e+02   3.356338e-08 
  7.120000e+02   3.508613e-08 
  7.140000e+02   3.874781e-08 
  7.160000e+02   1.007878e-07 
  7.180000e+02   2.955876e-07 
  7.200000e+02   3.969698e-07 
  7.220000e+02   2.470690e-07 
  7.240000e+02   6.985083e-08 
  7.260000e+02   2.960942e-08 
  7.280000e+02   2.665408e-08 
  7.300000e+02   3.430129e-08 
  7.320000e+02   3.972211e-08 
  7.340000e+02   3.548970e-08 
  7.360000e+02   3.376726e-08 
  7.380000e+02   3.561953e-08 
  7.400000e+02   3.860719e-08 
  7.420000e+02   3.786302e-08 
  7.440000e+02   3.575653e-08 
  7.460000e+02   3.460532e-08 
  7.480000e+02   4.010477e-08 
  7.500000e+02   5.481525e-08 
  7.520000e+02   8.946643e-08 
  7.540000e+02   9.937693e-08 
  7.560000e+02   7.754433e-08 
  7.580000e+02   5.660139e-08 
  7.600000e+02   3.910603e-08 
  7.620000e+02   3.679693e-08 
  7.640000e+02   3.764091e-08 
  7.660000e+02   4.656285e-08 
  7.680000e+02   1.069459e-07 
  7.700000e+02   1.722951e-07 
  7.720000e+02   1.356196e-07 
  7.740000e+02   6.433098e-08 
  7.760000e+02   4.072605e-07 
  7.780000e+02   1.263694e-06 
  7.800000e+02   1.686848e-06 
  7.820000e+02   1.041331e-06 
  7.840000e+02   2.724902e-07 
  7.860000e+02   4.465038e-08 
  7.880000e+02   3.570872e-08 
  7.900000e+02   3.625296e-08 
  7.920000e+02   3.376080e-08 
  7.940000e+02   3.450343e-08 
  7.960000e+02   3.249638e-08 
  7.980000e+02   3.210432e-08 
  8.000000e+02   3.765282e-08 
  8.020000e+02   3.877181e-08 
  8.040000e+02   3.967229e-08 
  8.060000e+02   4.098053e-08 
  8.080000e+02   3.861717e-08 
  8.100000e+02   3.576461e-08 
  8.120000e+02   3.155003e-08 
  8.140000e+02   3.366586e-08 
  8.160000e+02   3.381466e-08 
  8.180000e+02   3.269705e-08 
  8.200000e+02   3.697446e-08 
  8.220000e+02   3.601440e-08 
  8.240000e+02   3.544632e-08 
  8.260000e+02   4.406201e-08 
  8.280000e+02   4.251739e-08 
  8.300000e+02   3.522378e-08 
  8.320000e+02   3.427177e-08 
  8.340000e+02   3.870895e-08 
  8.360000e+02   8.638971e-08 
  8.380000e+02   2.326545e-07 
  8.400000e+02   3.050316e-07 
  8.420000e+02   1.875211e-07 
  8.440000e+02   5.444720e-08 
  8.460000e+02   3.518382e-08 
  8.480000e+02   3.545492e-08 
  8.500000e+02   3.561837e-08 
  8.520000e+02   3.426049e-08 
  8.540000e+02   3.608623e-08 
  8.560000e+02   3.615560e-08 
  8.580000e+02   3.259297e-08 
  8.600000e+02   3.605350e-08 
  8.620000e+02   3.575702e-08 
  8.640000e+02   3.450704e-08 
  8.660000e+02   3.870166e-08 
  8.680000e+02   4.412339e-08 
  8.700000e+02   5.060035e-08 
  8.720000e+02   7.962831e-08 
  8.740000e+02   9.195449e-08 
  8.760000e+02   8.215977e-08 
  8.780000e+02   6.365699e-08 
  8.800000e+02   3.692328e-08 
  8.820000e+02   3.489895e-08 
  8.840000e+02   4.217363e-08 
  8.860000e+02   4.319278e-08 
  8.880000e+02   4.421120e-08 
  8.900000e+02   5.379202e-08 
  8.920000e+02   4.820712e-08 
  8.940000e+02   3.923547e-08 
  8.960000e+02   2.028577e-07 
  8.980000e+02   6.286020e-07 
  9.000000e+02   8.331061e-07 
  9.020000e+02   5.070039e-07 
  9.040000e+02   1.269531e-07 
  9.060000e+02   3.443219e-08 
  9.080000e+02   4.472011e-08 
  9.100000e+02   4.601267e-08 
  9.120000e+02   3.390449e-08 
  9.140000e+02   3.244223e-08 
  9.160000e+02   3.446085e-08 
  9.180000e+02   3.581077e-08 
  9.200000e+02   2.992898e-08 
  9.220000e+02   2.893794e-08 
  9.240000e+02   3.621795e-08 
  9.260000e+02   4.520277e-08 
  9.280000e+02   3.861325e-08 
  9.300000e+02   3.424002e-08 
  9.320000e+02   3.565439e-08 
  9.340000e+02   3.181252e-08 
  9.360000e+02   2.993261e-08 
  9.380000e+02   2.658775e-08 
  9.400000e+02   2.882847e-08 
  9.420000e+02   3.268602e-08 
  9.440000e+02   3.411288e-08 
  9.460000e+02   3.671368e-08 
  9.480000e+02   3.879924e-08 
  9.500000e+02   3.776703e-08 
  9.520000e+02   3.816531e-08 
  9.540000e+02   3.709208e-08 
  9.560000e+02   4.359029e-08 
  9.580000e+02   8.047752e-08 
  9.600000e+02   1.018639e-07 
  9.620000e+02   6.882486e-08 
  9.640000e+02   3.653481e-08 
  9.660000e+02   2.829234e-08 
  9.680000e+02   2.517234e-08 
  9.700000e+02   2.996282e-08 
  9.720000e+02   3.383279e-08 
  9.740000e+02   3.289493e-08 
  9.760000e+02   3.449598e-08 
  9.780000e+02   3.836883e-08 
  9.800000e+02   3.444504e-08 
  9.820000e+02   2.858586e-08 
  9.840000e+02   3.715627e-08 
  9.860000e+02   4.452216e-08 
  9.880000e+02   4.026980e-08 
  9.900000e+02   3.766995e-08 
  9.920000e+02   3.525591e-08 
  9.940000e+02   2.987129e-08 
  9.960000e+02   3.284664e-08 
  9.980000e+02   3.658335e-08 
  1.000000e+03   3.600556e-08 
  1.002000e+03   3.473862e-08 
  1.004000e+03   3.327585e-08 
  1.006000e+03   3.623540e-08 
  1.008000e+03   7.030584e-08 
  1.010000e+03   1.051895e-07 
  1.012000e+03   8.236108e-08 
  1.014000e+03   4.228925e-08 
  1.016000e+03   4.997793e-08 
  1.018000e+03   1.179399e-07 
  1.020000e+03   1.508061e-07 
  1.022000e+03   9.357019e-08 
  1.024000e+03   3.843032e-08 
  1.026000e+03   3.489992e-08 
  1.028000e+03   3.721243e-08 
  1.030000e+03   3.503361e-08 
  1.032000e+03   3.287808e-08 
  1.034000e+03   3.758401e-08 
  1.036000e+03   3.849296e-08 
  1.038000e+03   3.784197e-08 
  1.040000e+03   3.976958e-08 
  1.042000e+03   4.243046e-08 
  1.044000e+03   3.989105e-08 
  1.046000e+03   3.857834e-08 
  1.048000e+03   3.890856e-08 
  1.050000e+03   3.622183e-08 
  1.052000e+03   3.359276e-08 
  1.054000e+03   3.351458e-08 
  1.056000e+03   3.426237e-08 
  1.058000e+03   3.680350e-08 
  1.060000e+03   3.437237e-08 
  1.062000e+03   3.292873e-08 
  1.064000e+03   3.206481e-08 
  1.066000e+03   2.971516e-08 
  1.068000e+03   3.056989e-08 
  1.070000e+03   3.490617e-08 
  1.072000e+03   3.443822e-08 
  1.074000e+03   3.599531e-08 
  1.076000e+03   8.845132e-08 
  1.078000e+03   2.221439e-07 
  1.080000e+03   2.786618e-07 
  1.082000e+03   1.624564e-07 
  1.084000e+03   4.451609e-08 
  1.086000e+03   3.596104e-08 
  1.088000e+03   3.821108e-08 
  1.090000e+03   3.537122e-08 
  1.092000e+03   3.998385e-08 
  1.094000e+03   4.070316e-08 
  1.096000e+03   3.801688e-08 
  1.098000e+03   3.917373e-08 
  1.100000e+03   4.887342e-08 
  1.102000e+03   4.804659e-08 
  1.104000e+03   4.070091e-08 
  1.106000e+03   4.143969e-08 
  1.108000e+03   4.344934e-08 
  1.110000e+03   4.543755e-08 
  1.112000e+03   4.392157e-08 
  1.114000e+03   5.260759e-08 
  1.116000e+03   5.203909e-08 
  1.118000e+03   4.899182e-08 
  1.120000e+03   4.760410e-08 
  1.122000e+03   4.282870e-08 
  1.124000e+03   4.105497e-08 
  1.126000e+03   3.685053e-08 
  1.128000e+03   3.839409e-08 
  1.130000e+03   3.912080e-08 
  1.132000e+03   4.048653e-08 
  1.134000e+03   4.619418e-08 
  1.136000e+03   1.512039e-07 
  1.138000e+03   4.280624e-07 
  1.140000e+03   5.436265e-07 
  1.142000e+03   3.209608e-07 
  1.144000e+03   8.614967e-08 
  1.146000e+03   3.005589e-08 
  1.148000e+03   3.269337e-08 
  1.150000e+03   4.104741e-08 
  1.152000e+03   4.023019e-08 
  1.154000e+03   3.397438e-08 
  1.156000e+03   3.190290e-08 
  1.158000e+03   3.045989e-08 
  1.160000e+03   3.210874e-08 
  1.162000e+03   3.689419e-08 
  1.164000e+03   3.863429e-08 
  1.166000e+03   3.318003e-08 
  1.168000e+03   3.032677e-08 
  1.170000e+03   3.291079e-08 
  1.172000e+03   3.225754e-08 
  1.174000e+03   3.643935e-08 
  1.176000e+03   3.659813e-08 
  1.178000e+03   3.405049e-08 
  1.180000e+03   3.369252e-08 
  1.182000e+03   3.298918e-08 
  1.184000e+03   3.457680e-08 
  1.186000e+03   3.994941e-08 
  1.188000e+03   4.447841e-08 
  1.190000e+03   4.311098e-08 
  1.192000e+03   3.998450e-08 
  1.194000e+03   3.221350e-08 
  1.196000e+03   9.869397e-08 
  1.198000e+03   2.663425e-07 
  1.200000e+03   3.296468e-07 
  1.202000e+03   1.915799e-07 
  1.204000e+03   5.785958e-08 
  1.206000e+03   3.914053e-08 
  1.208000e+03   3.954355e-08 
  1.210000e+03   3.308362e-08 
  1.212000e+03   3.268445e-08 
  1.214000e+03   3.700225e-08 
  1.216000e+03   4.008942e-08 
  1.218000e+03   4.089133e-08 
  1.220000e+03   4.034137e-08 
  1.222000e+03   3.962903e-08 
  1.224000e+03   4.046851e-08 
  1.226000e+03   4.186080e-08 
  1.228000e+03   3.759598e-08 
  1.230000e+03   3.442898e-08 
  1.232000e+03   4.075965e-08 
  1.234000e+03   4.487439e-08 
  1.236000e+03   4.078317e-08 
  1.238000e+03   3.131014e-08 
  1.240000e+03   2.897740e-08 
  1.242000e+03   3.731519e-08 
  1.244000e+03   4.226169e-08 
  1.246000e+03   4.004747e-08 
  1.248000e+03   3.995262e-08 
  1.250000e+03   3.920163e-08 
  1.252000e+03   3.567309e-08 
  1.254000e+03   4.018503e-08 
  1.256000e+03   1.557948e-07 
  1.258000e+03   4.363979e-07 
  1.260000e+03   5.447094e-07 
  1.262000e+03   3.159620e-07 
  1.264000e+03   8.515152e-08 
  1.266000e+03   4.024279e-08 
  1.268000e+03   3.809294e-08 
  1.270000e+03   3.962846e-08 
  1.272000e+03   4.149343e-08 
  1.274000e+03   3.914692e-08 
  1.276000e+03   3.641609e-08 
  1.278000e+03   3.803669e-08 
  1.280000e+03   3.948267e-08 
  1.282000e+03   4.510814e-08 
  1.284000e+03   5.029942e-08 
  1.286000e+03   4.707644e-08 
  1.288000e+03   3.878175e-08 
  1.290000e+03   3.817914e-08 
  1.292000e+03   4.337117e-08 
  1.294000e+03   4.556489e-08 
  1.296000e+03   4.189930e-08 
  1.298000e+03   4.122742e-08 
  1.300000e+03   4.425143e-08 
  1.302000e+03   3.827214e-08 
  1.304000e+03   2.922184e-08 
  1.306000e+03   4.004141e-08 
  1.308000e+03   4.310528e-08 
  1.310000e+03   3.914880e-08 
  1.312000e+03   4.102472e-08 
  1.314000e+03   4.095166e-08 
  1.316000e+03   8.862622e-08 
  1.318000e+03   2.262208e-07 
  1.320000e+03   2.813420e-07 
  1.322000e+03   1.638631e-07 
  1.324000e+03   5.446079e-08 
  1.326000e+03   4.177089e-08 
  1.328000e+03   4.124023e-08 
  1.330000e+03   3.673337e-08 
  1.332000e+03   3.776960e-08 
  1.334000e+03   4.211962e-08 
  1.336000e+03   4.476323e-08 
  1.338000e+03   4.299680e-08 
  1.340000e+03   4.019495e-08 
  1.342000e+03   4.380794e-08 
  1.344000e+03   4.597243e-08 
  1.346000e+03   4.112571e-08 
  1.348000e+03   3.181136e-08 
  1.350000e+03   2.906136e-08 
  1.352000e+03   3.719764e-08 
  1.354000e+03   4.278601e-08 
  1.356000e+03   4.141724e-08 
  1.358000e+03   3.794618e-08 
  1.360000e+03   3.616379e-08 
  1.362000e+03   3.795571e-08 
  1.364000e+03   4.048119e-08 
  1.366000e+03   3.941043e-08 
  1.368000e+03   4.065551e-08 
  1.370000e+03   3.913879e-08 
  1.372000e+03   4.093017e-08 
  1.374000e+03   3.940347e-08 
  1.376000e+03   8.714235e-08 
  1.378000e+03   2.404578e-07 
  1.380000e+03   3.017928e-07 
  1.382000e+03   1.735563e-07 
  1.384000e+03   5.707948e-08 
  1.386000e+03   4.801509e-08 
  1.388000e+03   4.049413e-08 
  1.390000e+03   3.595347e-08 
  1.392000e+03   3.821521e-08 
  1.394000e+03   4.165339e-08 
  1.396000e+03   4.832182e-08 
  1.398000e+03   4.910485e-08 
  1.400000e+03   4.351807e-08 
  1.402000e+03   4.084285e-08 
  1.404000e+03   3.883775e-08 
  1.406000e+03   3.582723e-08 
  1.408000e+03   3.655621e-08 
  1.410000e+03   3.918278e-08 
  1.412000e+03   3.749429e-08 
  1.414000e+03   3.365802e-08 
  1.416000e+03   3.436020e-08 
  1.418000e+03   3.192203e-08 
  1.420000e+03   3.384086e-08 
  1.422000e+03   4.057413e-08 
  1.424000e+03   3.804527e-08 
  1.426000e+03   3.252371e-08 
  1.428000e+03   3.611413e-08 
  1.430000e+03   4.008425e-08 
  1.432000e+03   3.882862e-08 
  1.434000e+03   3.504407e-08 
  1.436000e+03   3.858826e-08 
  1.438000e+03   4.612719e-08 
  1.440000e+03   4.877243e-08 
  1.442000e+03   4.646059e-08 
  1.444000e+03   4.344852e-08 
  1.446000e+03   3.834336e-08 
  1.448000e+03   3.760258e-08 
  1.450000e+03   3.919962e-08 
  1.452000e+03   3.559168e-08 
  1.454000e+03   4.284631e-08 
  1.456000e+03   5.410229e-08 
  1.458000e+03   5.127272e-08 
  1.460000e+03   4.004806e-08 
  1.462000e+03   3.728058e-08 
  1.464000e+03   3.825264e-08 
  1.466000e+03   4.144896e-08 
  1.468000e+03   4.224624e-08 
  1.470000e+03   4.109974e-08 
  1.472000e+03   4.130240e-08 
  1.474000e+03   4.099923e-08 
  1.476000e+03   3.866799e-08 
  1.478000e+03   3.678864e-08 
  1.480000e+03   4.099703e-08 
  1.482000e+03   4.035451e-08 
  1.484000e+03   3.852519e-08 
  1.486000e+03   3.963905e-08 
  1.488000e+03   4.032960e-08 
  1.490000e+03   3.971543e-08 
  1.492000e+03   4.164571e-08 
  1.494000e+03   4.791871e-08 
  1.496000e+03   1.433539e-07 
  1.498000e+03   3.646918e-07 
  1.500000e+03   4.409868e-07 
  1.502000e+03   2.543035e-07 
  1.504000e+03   7.493753e-08 
  1.506000e+03   4.074968e-08 
  1.508000e+03   3.977495e-08 
  1.510000e+03   4.171373e-08 
  1.512000e+03   4.009843e-08 
  1.514000e+03   3.928392e-08 
  1.516000e+03   4.092536e-08 
  1.518000e+03   3.784243e-08 
  1.520000e+03   4.131829e-08 
  1.522000e+03   4.634935e-08 
  1.524000e+03   4.735838e-08 
  1.526000e+03   4.843465e-08 
  1.528000e+03   4.475446e-08 
  1.530000e+03   4.168655e-08 
  1.532000e+03   4.148906e-08 
  1.534000e+03   3.728371e-08 
  1.536000e+03   3.642420e-08 
  1.538000e+03   4.193075e-08 
  1.540000e+03   4.717952e-08 
  1.542000e+03   4.473376e-08 
  1.544000e+03   3.958355e-08 
  1.546000e+03   3.758127e-08 
  1.548000e+03   3.654361e-08 
  1.550000e+03   3.648815e-08 
  1.552000e+03   3.886676e-08 
  1.554000e+03   4.300343e-08 
  1.556000e+03   5.875722e-08 
  1.558000e+03   1.077783e-07 
  1.560000e+03   1.192924e-07 
  1.562000e+03   6.785342e-08 
  1.564000e+03   3.724793e-08 
  1.566000e+03   4.421999e-08 
  1.568000e+03   5.090392e-08 
  1.570000e+03   5.336059e-08 
  1.572000e+03   4.878277e-08 
  1.574000e+03   4.417404e-08 
  1.576000e+03   4.190903e-08 
  1.578000e+03   3.769149e-08 
  1.580000e+03   3.890334e-08 
  1.582000e+03   4.131275e-08 
  1.584000e+03   3.783174e-08 
  1.586000e+03   4.188078e-08 
  1.588000e+03   4.451223e-08 
  1.590000e+03   4.506118e-08 
  1.592000e+03   4.205239e-08 
  1.594000e+03   3.965559e-08 
  1.596000e+03   4.036084e-08 
  1.598000e+03   4.076864e-08 
  1.600000e+03   4.300611e-08 
