Input File: 20NSOUT.78D
Measure Group: FFT
Measurement: FFT 1
Num of extracted Points: 401
Start Freq: -0 Hz
Span: 1.6 kHz
FFT Lines:  400 
Window: BMH
Averaging Mode: RMS
Averaging Type: Exp. / Cont.
Number of Avg:   36
Overload reject: Off

    X[Hz]      Vrms/Hz^(1/... 
  0.000000e+00   1.031325e-02 
  4.000000e+00   7.339892e-03 
  8.000000e+00   2.881290e-03 
  1.200000e+01   1.096600e-03 
  1.600000e+01   6.763391e-04 
  2.000000e+01   5.022225e-04 
  2.400000e+01   3.832911e-04 
  2.800000e+01   3.661911e-04 
  3.200000e+01   3.773296e-04 
  3.600000e+01   3.661588e-04 
  4.000000e+01   3.520426e-04 
  4.400000e+01   3.518433e-04 
  4.800000e+01   4.632080e-04 
  5.200000e+01   3.292241e-03 
  5.600000e+01   1.119115e-02 
  6.000000e+01   1.644268e-02 
  6.400000e+01   1.121587e-02 
  6.800000e+01   3.265258e-03 
  7.200000e+01   4.355361e-04 
  7.600000e+01   3.684330e-04 
  8.000000e+01   3.569862e-04 
  8.400000e+01   3.442164e-04 
  8.800000e+01   3.090060e-04 
  9.200000e+01   2.988311e-04 
  9.600000e+01   2.945235e-04 
  1.000000e+02   3.033728e-04 
  1.040000e+02   3.074947e-04 
  1.080000e+02   5.045552e-04 
  1.120000e+02   1.253846e-03 
  1.160000e+02   1.745657e-03 
  1.200000e+02   1.228262e-03 
  1.240000e+02   5.334434e-04 
  1.280000e+02   3.263027e-04 
  1.320000e+02   2.906521e-04 
  1.360000e+02   2.729666e-04 
  1.400000e+02   2.672732e-04 
  1.440000e+02   2.832504e-04 
  1.480000e+02   3.110477e-04 
  1.520000e+02   3.124976e-04 
  1.560000e+02   3.058879e-04 
  1.600000e+02   3.207586e-04 
  1.640000e+02   3.162369e-04 
  1.680000e+02   3.123531e-04 
  1.720000e+02   6.830137e-04 
  1.760000e+02   2.010598e-03 
  1.800000e+02   2.930645e-03 
  1.840000e+02   2.020445e-03 
  1.880000e+02   6.574496e-04 
  1.920000e+02   3.628549e-04 
  1.960000e+02   4.577753e-04 
  2.000000e+02   4.253914e-04 
  2.040000e+02   3.265160e-04 
  2.080000e+02   2.839400e-04 
  2.120000e+02   2.686483e-04 
  2.160000e+02   2.692391e-04 
  2.200000e+02   2.887099e-04 
  2.240000e+02   3.952255e-04 
  2.280000e+02   9.686142e-04 
  2.320000e+02   1.370750e-03 
  2.360000e+02   9.642889e-04 
  2.400000e+02   5.073269e-04 
  2.440000e+02   4.101592e-04 
  2.480000e+02   3.374718e-04 
  2.520000e+02   3.041934e-04 
  2.560000e+02   3.024288e-04 
  2.600000e+02   2.970977e-04 
  2.640000e+02   2.789889e-04 
  2.680000e+02   2.831776e-04 
  2.720000e+02   2.633219e-04 
  2.760000e+02   2.644529e-04 
  2.800000e+02   2.759033e-04 
  2.840000e+02   2.637771e-04 
  2.880000e+02   2.517959e-04 
  2.920000e+02   5.709247e-04 
  2.960000e+02   1.918362e-03 
  3.000000e+02   2.848265e-03 
  3.040000e+02   1.955254e-03 
  3.080000e+02   6.387841e-04 
  3.120000e+02   2.967286e-04 
  3.160000e+02   2.859500e-04 
  3.200000e+02   3.206719e-04 
  3.240000e+02   3.274436e-04 
  3.280000e+02   3.128768e-04 
  3.320000e+02   3.225075e-04 
  3.360000e+02   3.314934e-04 
  3.400000e+02   3.291471e-04 
  3.440000e+02   3.531259e-04 
  3.480000e+02   4.057921e-04 
  3.520000e+02   3.642874e-04 
  3.560000e+02   3.220415e-04 
  3.600000e+02   3.291986e-04 
  3.640000e+02   3.044707e-04 
  3.680000e+02   2.860904e-04 
  3.720000e+02   3.176403e-04 
  3.760000e+02   3.272297e-04 
  3.800000e+02   3.093983e-04 
  3.840000e+02   2.939775e-04 
  3.880000e+02   3.245207e-04 
  3.920000e+02   5.217144e-04 
  3.960000e+02   6.695626e-04 
  4.000000e+02   4.888914e-04 
  4.040000e+02   2.741068e-04 
  4.080000e+02   2.634586e-04 
  4.120000e+02   3.032255e-04 
  4.160000e+02   5.251857e-04 
  4.200000e+02   7.038465e-04 
  4.240000e+02   5.301667e-04 
  4.280000e+02   3.063286e-04 
  4.320000e+02   2.680782e-04 
  4.360000e+02   2.855647e-04 
  4.400000e+02   3.022716e-04 
  4.440000e+02   3.248697e-04 
  4.480000e+02   2.943806e-04 
  4.520000e+02   2.700940e-04 
  4.560000e+02   3.513088e-04 
  4.600000e+02   7.111314e-04 
  4.640000e+02   9.426755e-04 
  4.680000e+02   6.789430e-04 
  4.720000e+02   3.806379e-04 
  4.760000e+02   3.105293e-04 
  4.800000e+02   2.962217e-04 
  4.840000e+02   2.587736e-04 
  4.880000e+02   2.480740e-04 
  4.920000e+02   2.785022e-04 
  4.960000e+02   2.942339e-04 
  5.000000e+02   2.878839e-04 
  5.040000e+02   2.913930e-04 
  5.080000e+02   2.806429e-04 
  5.120000e+02   2.874514e-04 
  5.160000e+02   2.844748e-04 
  5.200000e+02   2.956189e-04 
  5.240000e+02   3.123159e-04 
  5.280000e+02   3.301626e-04 
  5.320000e+02   3.938375e-04 
  5.360000e+02   8.616128e-04 
  5.400000e+02   1.263750e-03 
  5.440000e+02   9.357283e-04 
  5.480000e+02   4.481837e-04 
  5.520000e+02   3.142566e-04 
  5.560000e+02   3.192390e-04 
  5.600000e+02   3.266114e-04 
  5.640000e+02   3.176170e-04 
  5.680000e+02   3.242581e-04 
  5.720000e+02   3.925997e-04 
  5.760000e+02   7.731664e-04 
  5.800000e+02   1.015118e-03 
  5.840000e+02   6.804146e-04 
  5.880000e+02   5.068992e-04 
  5.920000e+02   6.742684e-04 
  5.960000e+02   6.607601e-04 
  6.000000e+02   4.622944e-04 
  6.040000e+02   2.992425e-04 
  6.080000e+02   2.885315e-04 
  6.120000e+02   3.164770e-04 
  6.160000e+02   2.922417e-04 
  6.200000e+02   2.669308e-04 
  6.240000e+02   2.731303e-04 
  6.280000e+02   2.792852e-04 
  6.320000e+02   2.911217e-04 
  6.360000e+02   2.806012e-04 
  6.400000e+02   2.897031e-04 
  6.440000e+02   3.063669e-04 
  6.480000e+02   2.709583e-04 
  6.520000e+02   3.457068e-04 
  6.560000e+02   8.718768e-04 
  6.600000e+02   1.323204e-03 
  6.640000e+02   1.005015e-03 
  6.680000e+02   4.628503e-04 
  6.720000e+02   2.633223e-04 
  6.760000e+02   2.680428e-04 
  6.800000e+02   3.016533e-04 
  6.840000e+02   2.890771e-04 
  6.880000e+02   2.686246e-04 
  6.920000e+02   3.630618e-04 
  6.960000e+02   4.305584e-04 
  7.000000e+02   3.423802e-04 
  7.040000e+02   2.813194e-04 
  7.080000e+02   3.094111e-04 
  7.120000e+02   3.021830e-04 
  7.160000e+02   2.655785e-04 
  7.200000e+02   2.578307e-04 
  7.240000e+02   2.761119e-04 
  7.280000e+02   2.974481e-04 
  7.320000e+02   3.084919e-04 
  7.360000e+02   3.111008e-04 
  7.400000e+02   2.960514e-04 
  7.440000e+02   3.158198e-04 
  7.480000e+02   3.242526e-04 
  7.520000e+02   2.878381e-04 
  7.560000e+02   2.681285e-04 
  7.600000e+02   2.614813e-04 
  7.640000e+02   2.601788e-04 
  7.680000e+02   2.681828e-04 
  7.720000e+02   2.777717e-04 
  7.760000e+02   2.983242e-04 
  7.800000e+02   3.316265e-04 
  7.840000e+02   3.451744e-04 
  7.880000e+02   5.224379e-04 
  7.920000e+02   5.994668e-04 
  7.960000e+02   5.102640e-04 
  8.000000e+02   3.498688e-04 
  8.040000e+02   3.464222e-04 
  8.080000e+02   5.552946e-04 
  8.120000e+02   6.920695e-04 
  8.160000e+02   4.801824e-04 
  8.200000e+02   3.091097e-04 
  8.240000e+02   3.047060e-04 
  8.280000e+02   3.485180e-04 
  8.320000e+02   3.545940e-04 
  8.360000e+02   3.455287e-04 
  8.400000e+02   3.495923e-04 
  8.440000e+02   3.283664e-04 
  8.480000e+02   3.156195e-04 
  8.520000e+02   3.162691e-04 
  8.560000e+02   3.095864e-04 
  8.600000e+02   3.032207e-04 
  8.640000e+02   3.191662e-04 
  8.680000e+02   3.268800e-04 
  8.720000e+02   2.871254e-04 
  8.760000e+02   2.881360e-04 
  8.800000e+02   3.128409e-04 
  8.840000e+02   3.313289e-04 
  8.880000e+02   3.157355e-04 
  8.920000e+02   2.842202e-04 
  8.960000e+02   4.409295e-04 
  9.000000e+02   6.016337e-04 
  9.040000e+02   4.418156e-04 
  9.080000e+02   2.832082e-04 
  9.120000e+02   2.736988e-04 
  9.160000e+02   3.006966e-04 
  9.200000e+02   4.068242e-04 
  9.240000e+02   7.602217e-04 
  9.280000e+02   9.025881e-04 
  9.320000e+02   5.576520e-04 
  9.360000e+02   3.066254e-04 
  9.400000e+02   3.004799e-04 
  9.440000e+02   3.520997e-04 
  9.480000e+02   3.596595e-04 
  9.520000e+02   2.929981e-04 
  9.560000e+02   2.829132e-04 
  9.600000e+02   2.909412e-04 
  9.640000e+02   2.813657e-04 
  9.680000e+02   2.647626e-04 
  9.720000e+02   2.801447e-04 
  9.760000e+02   3.074118e-04 
  9.800000e+02   3.419416e-04 
  9.840000e+02   4.549851e-04 
  9.880000e+02   5.133246e-04 
  9.920000e+02   4.779769e-04 
  9.960000e+02   4.059630e-04 
  1.000000e+03   2.991689e-04 
  1.004000e+03   2.438706e-04 
  1.008000e+03   2.373366e-04 
  1.012000e+03   2.763911e-04 
  1.016000e+03   3.859315e-04 
  1.020000e+03   4.432109e-04 
  1.024000e+03   3.345922e-04 
  1.028000e+03   2.608308e-04 
  1.032000e+03   2.541077e-04 
  1.036000e+03   2.993125e-04 
  1.040000e+03   3.904495e-04 
  1.044000e+03   4.128983e-04 
  1.048000e+03   3.328590e-04 
  1.052000e+03   2.923303e-04 
  1.056000e+03   2.592259e-04 
  1.060000e+03   2.622117e-04 
  1.064000e+03   3.066192e-04 
  1.068000e+03   3.587634e-04 
  1.072000e+03   3.226014e-04 
  1.076000e+03   3.007850e-04 
  1.080000e+03   2.951794e-04 
  1.084000e+03   3.532471e-04 
  1.088000e+03   4.153909e-04 
  1.092000e+03   5.406689e-04 
  1.096000e+03   7.157788e-04 
  1.100000e+03   8.094243e-04 
  1.104000e+03   8.842601e-04 
  1.108000e+03   8.176212e-04 
  1.112000e+03   5.885166e-04 
  1.116000e+03   3.989507e-04 
  1.120000e+03   3.198826e-04 
  1.124000e+03   2.758858e-04 
  1.128000e+03   3.097991e-04 
  1.132000e+03   3.613583e-04 
  1.136000e+03   4.024209e-04 
  1.140000e+03   4.450525e-04 
  1.144000e+03   4.914848e-04 
  1.148000e+03   5.430079e-04 
  1.152000e+03   5.230786e-04 
  1.156000e+03   5.926372e-04 
  1.160000e+03   6.125591e-04 
  1.164000e+03   4.543145e-04 
  1.168000e+03   4.486783e-04 
  1.172000e+03   5.206694e-04 
  1.176000e+03   5.710570e-04 
  1.180000e+03   5.769978e-04 
  1.184000e+03   6.614520e-04 
  1.188000e+03   6.924815e-04 
  1.192000e+03   6.365275e-04 
  1.196000e+03   4.991220e-04 
  1.200000e+03   4.194393e-04 
  1.204000e+03   3.989168e-04 
  1.208000e+03   3.957366e-04 
  1.212000e+03   3.883814e-04 
  1.216000e+03   3.986299e-04 
  1.220000e+03   5.409513e-04 
  1.224000e+03   7.083325e-04 
  1.228000e+03   6.940152e-04 
  1.232000e+03   6.206483e-04 
  1.236000e+03   6.083454e-04 
  1.240000e+03   6.655569e-04 
  1.244000e+03   7.041480e-04 
  1.248000e+03   5.982243e-04 
  1.252000e+03   5.949502e-04 
  1.256000e+03   7.769350e-04 
  1.260000e+03   1.090033e-03 
  1.264000e+03   1.346345e-03 
  1.268000e+03   1.603429e-03 
  1.272000e+03   2.060052e-03 
  1.276000e+03   2.170683e-03 
  1.280000e+03   1.890727e-03 
  1.284000e+03   1.686291e-03 
  1.288000e+03   1.685423e-03 
  1.292000e+03   1.757744e-03 
  1.296000e+03   1.721067e-03 
  1.300000e+03   1.390574e-03 
  1.304000e+03   1.245150e-03 
  1.308000e+03   1.396933e-03 
  1.312000e+03   1.407505e-03 
  1.316000e+03   1.384773e-03 
  1.320000e+03   1.255021e-03 
  1.324000e+03   9.962936e-04 
  1.328000e+03   9.181672e-04 
  1.332000e+03   1.027125e-03 
  1.336000e+03   1.218291e-03 
  1.340000e+03   1.451029e-03 
  1.344000e+03   1.646494e-03 
  1.348000e+03   1.978252e-03 
  1.352000e+03   2.078221e-03 
  1.356000e+03   1.772738e-03 
  1.360000e+03   1.408023e-03 
  1.364000e+03   1.157552e-03 
  1.368000e+03   1.136733e-03 
  1.372000e+03   1.238454e-03 
  1.376000e+03   1.152906e-03 
  1.380000e+03   9.713112e-04 
  1.384000e+03   6.501462e-04 
  1.388000e+03   4.936739e-04 
  1.392000e+03   5.206657e-04 
  1.396000e+03   3.818675e-04 
  1.400000e+03   3.464640e-04 
  1.404000e+03   3.892426e-04 
  1.408000e+03   4.193965e-04 
  1.412000e+03   4.102344e-04 
  1.416000e+03   4.117090e-04 
  1.420000e+03   4.042825e-04 
  1.424000e+03   3.719597e-04 
  1.428000e+03   3.575837e-04 
  1.432000e+03   3.323708e-04 
  1.436000e+03   3.133541e-04 
  1.440000e+03   2.962589e-04 
  1.444000e+03   3.121364e-04 
  1.448000e+03   3.363376e-04 
  1.452000e+03   3.358120e-04 
  1.456000e+03   3.456540e-04 
  1.460000e+03   3.473252e-04 
  1.464000e+03   3.764237e-04 
  1.468000e+03   4.997061e-04 
  1.472000e+03   6.985775e-04 
  1.476000e+03   8.406691e-04 
  1.480000e+03   7.980494e-04 
  1.484000e+03   7.266573e-04 
  1.488000e+03   6.223411e-04 
  1.492000e+03   5.051618e-04 
  1.496000e+03   5.011954e-04 
  1.500000e+03   6.230842e-04 
  1.504000e+03   6.857021e-04 
  1.508000e+03   5.923923e-04 
  1.512000e+03   5.036055e-04 
  1.516000e+03   5.002979e-04 
  1.520000e+03   4.589506e-04 
  1.524000e+03   4.166487e-04 
  1.528000e+03   3.855674e-04 
  1.532000e+03   3.571826e-04 
  1.536000e+03   3.670587e-04 
  1.540000e+03   4.236417e-04 
  1.544000e+03   4.141406e-04 
  1.548000e+03   3.565665e-04 
  1.552000e+03   3.260906e-04 
  1.556000e+03   2.771175e-04 
  1.560000e+03   2.645504e-04 
  1.564000e+03   2.868635e-04 
  1.568000e+03   2.949071e-04 
  1.572000e+03   2.752758e-04 
  1.576000e+03   2.721862e-04 
  1.580000e+03   2.872096e-04 
  1.584000e+03   3.025302e-04 
  1.588000e+03   3.420194e-04 
  1.592000e+03   3.153585e-04 
  1.596000e+03   2.643343e-04 
  1.600000e+03   2.558248e-04 
