Input File: 20NSIN.78D
Measure Group: FFT
Measurement: FFT 1
Num of extracted Points: 801
Start Freq: -0 Hz
Span: 1.6 kHz
FFT Lines:  800 
Window: Hanning
Averaging Mode: RMS
Averaging Type: Linear / Fix Len
Number of Avg:  100
Overload reject: On

    X[Hz]      Vrms/Hz^(1/... 
  0.000000e+00   1.643335e-03 
  2.000000e+00   8.216886e-04 
  4.000000e+00   6.664833e-07 
  6.000000e+00   4.550069e-07 
  8.000000e+00   3.777011e-07 
  1.000000e+01   3.312441e-07 
  1.200000e+01   3.272098e-07 
  1.400000e+01   3.039106e-07 
  1.600000e+01   2.282771e-07 
  1.800000e+01   1.965182e-07 
  2.000000e+01   1.669759e-07 
  2.200000e+01   1.494986e-07 
  2.400000e+01   1.392845e-07 
  2.600000e+01   1.199384e-07 
  2.800000e+01   1.115917e-07 
  3.000000e+01   1.073301e-07 
  3.200000e+01   9.419947e-08 
  3.400000e+01   9.017755e-08 
  3.600000e+01   9.946196e-08 
  3.800000e+01   9.628503e-08 
  4.000000e+01   8.596223e-08 
  4.200000e+01   8.778211e-08 
  4.400000e+01   8.442265e-08 
  4.600000e+01   7.152593e-08 
  4.800000e+01   7.082779e-08 
  5.000000e+01   6.863775e-08 
  5.200000e+01   7.055433e-08 
  5.400000e+01   6.513368e-08 
  5.600000e+01   1.148747e-07 
  5.800000e+01   3.400392e-05 
  6.000000e+01   6.876067e-05 
  6.200000e+01   3.475627e-05 
  6.400000e+01   1.133401e-07 
  6.600000e+01   9.173763e-08 
  6.800000e+01   7.095606e-08 
  7.000000e+01   6.097842e-08 
  7.200000e+01   5.946084e-08 
  7.400000e+01   5.838181e-08 
  7.600000e+01   5.579596e-08 
  7.800000e+01   5.781536e-08 
  8.000000e+01   6.149059e-08 
  8.200000e+01   5.970996e-08 
  8.400000e+01   5.992448e-08 
  8.600000e+01   6.040963e-08 
  8.800000e+01   5.419734e-08 
  9.000000e+01   5.095954e-08 
  9.200000e+01   5.407005e-08 
  9.400000e+01   6.023433e-08 
  9.600000e+01   5.597246e-08 
  9.800000e+01   5.686352e-08 
  1.000000e+02   5.578254e-08 
  1.020000e+02   5.537775e-08 
  1.040000e+02   5.422345e-08 
  1.060000e+02   5.563001e-08 
  1.080000e+02   5.596076e-08 
  1.100000e+02   5.442480e-08 
  1.120000e+02   5.690546e-08 
  1.140000e+02   5.447149e-08 
  1.160000e+02   5.859299e-08 
  1.180000e+02   4.060287e-07 
  1.200000e+02   8.146837e-07 
  1.220000e+02   4.201572e-07 
  1.240000e+02   5.308274e-08 
  1.260000e+02   4.969881e-08 
  1.280000e+02   4.715812e-08 
  1.300000e+02   4.707220e-08 
  1.320000e+02   5.022229e-08 
  1.340000e+02   5.722548e-08 
  1.360000e+02   5.453131e-08 
  1.380000e+02   5.403559e-08 
  1.400000e+02   5.219251e-08 
  1.420000e+02   5.483164e-08 
  1.440000e+02   5.541192e-08 
  1.460000e+02   5.339615e-08 
  1.480000e+02   5.447830e-08 
  1.500000e+02   5.194212e-08 
  1.520000e+02   5.066383e-08 
  1.540000e+02   4.996942e-08 
  1.560000e+02   4.932679e-08 
  1.580000e+02   5.260865e-08 
  1.600000e+02   5.344903e-08 
  1.620000e+02   5.268288e-08 
  1.640000e+02   5.385924e-08 
  1.660000e+02   5.002006e-08 
  1.680000e+02   4.777046e-08 
  1.700000e+02   4.718546e-08 
  1.720000e+02   5.477296e-08 
  1.740000e+02   5.551528e-08 
  1.760000e+02   6.264681e-08 
  1.780000e+02   6.144834e-06 
  1.800000e+02   1.269471e-05 
  1.820000e+02   6.554744e-06 
  1.840000e+02   7.188681e-08 
  1.860000e+02   5.361888e-08 
  1.880000e+02   5.152151e-08 
  1.900000e+02   4.846243e-08 
  1.920000e+02   5.032724e-08 
  1.940000e+02   5.184211e-08 
  1.960000e+02   5.081961e-08 
  1.980000e+02   5.340898e-08 
  2.000000e+02   5.152160e-08 
  2.020000e+02   4.833386e-08 
  2.040000e+02   5.029244e-08 
  2.060000e+02   5.402160e-08 
  2.080000e+02   5.121811e-08 
  2.100000e+02   4.994002e-08 
  2.120000e+02   5.273763e-08 
  2.140000e+02   5.310653e-08 
  2.160000e+02   5.311317e-08 
  2.180000e+02   5.302751e-08 
  2.200000e+02   4.908735e-08 
  2.220000e+02   4.783523e-08 
  2.240000e+02   5.359419e-08 
  2.260000e+02   5.402822e-08 
  2.280000e+02   5.071435e-08 
  2.300000e+02   5.215190e-08 
  2.320000e+02   5.217217e-08 
  2.340000e+02   4.840905e-08 
  2.360000e+02   5.098022e-08 
  2.380000e+02   3.148417e-07 
  2.400000e+02   6.406821e-07 
  2.420000e+02   3.352588e-07 
  2.440000e+02   5.427134e-08 
  2.460000e+02   5.062333e-08 
  2.480000e+02   4.970283e-08 
  2.500000e+02   5.199304e-08 
  2.520000e+02   5.572440e-08 
  2.540000e+02   5.640954e-08 
  2.560000e+02   5.550634e-08 
  2.580000e+02   5.035708e-08 
  2.600000e+02   4.964014e-08 
  2.620000e+02   5.279232e-08 
  2.640000e+02   5.499334e-08 
  2.660000e+02   5.271884e-08 
  2.680000e+02   4.805444e-08 
  2.700000e+02   4.919020e-08 
  2.720000e+02   5.037836e-08 
  2.740000e+02   4.991512e-08 
  2.760000e+02   5.242338e-08 
  2.780000e+02   5.094961e-08 
  2.800000e+02   5.237368e-08 
  2.820000e+02   5.112755e-08 
  2.840000e+02   5.242415e-08 
  2.860000e+02   5.379253e-08 
  2.880000e+02   5.265343e-08 
  2.900000e+02   5.084107e-08 
  2.920000e+02   5.390989e-08 
  2.940000e+02   5.261890e-08 
  2.960000e+02   6.149045e-08 
  2.980000e+02   3.156912e-06 
  3.000000e+02   6.653869e-06 
  3.020000e+02   3.507282e-06 
  3.040000e+02   7.043175e-08 
  3.060000e+02   5.156008e-08 
  3.080000e+02   4.698048e-08 
  3.100000e+02   4.319553e-08 
  3.120000e+02   4.982458e-08 
  3.140000e+02   5.346255e-08 
  3.160000e+02   5.342745e-08 
  3.180000e+02   5.097992e-08 
  3.200000e+02   5.004490e-08 
  3.220000e+02   4.603221e-08 
  3.240000e+02   4.768327e-08 
  3.260000e+02   5.903077e-08 
  3.280000e+02   5.457097e-08 
  3.300000e+02   5.261402e-08 
  3.320000e+02   5.630046e-08 
  3.340000e+02   5.266737e-08 
  3.360000e+02   4.735112e-08 
  3.380000e+02   4.904210e-08 
  3.400000e+02   5.178663e-08 
  3.420000e+02   5.596504e-08 
  3.440000e+02   5.484056e-08 
  3.460000e+02   4.773900e-08 
  3.480000e+02   5.070774e-08 
  3.500000e+02   5.161051e-08 
  3.520000e+02   5.065579e-08 
  3.540000e+02   5.323706e-08 
  3.560000e+02   5.224083e-08 
  3.580000e+02   1.690621e-07 
  3.600000e+02   3.493711e-07 
  3.620000e+02   1.940362e-07 
  3.640000e+02   5.288967e-08 
  3.660000e+02   5.283049e-08 
  3.680000e+02   4.910918e-08 
  3.700000e+02   5.244099e-08 
  3.720000e+02   5.324316e-08 
  3.740000e+02   5.007379e-08 
  3.760000e+02   4.965237e-08 
  3.780000e+02   5.329139e-08 
  3.800000e+02   5.007269e-08 
  3.820000e+02   5.125909e-08 
  3.840000e+02   5.386672e-08 
  3.860000e+02   5.166811e-08 
  3.880000e+02   5.350795e-08 
  3.900000e+02   5.807630e-08 
  3.920000e+02   6.157018e-08 
  3.940000e+02   6.150043e-08 
  3.960000e+02   5.384330e-08 
  3.980000e+02   5.752371e-08 
  4.000000e+02   5.296318e-08 
  4.020000e+02   5.464753e-08 
  4.040000e+02   5.397112e-08 
  4.060000e+02   5.280247e-08 
  4.080000e+02   5.131373e-08 
  4.100000e+02   5.163820e-08 
  4.120000e+02   5.084887e-08 
  4.140000e+02   5.837817e-08 
  4.160000e+02   7.284076e-08 
  4.180000e+02   2.827018e-06 
  4.200000e+02   6.108645e-06 
  4.220000e+02   3.301061e-06 
  4.240000e+02   8.330071e-08 
  4.260000e+02   5.589077e-08 
  4.280000e+02   4.738165e-08 
  4.300000e+02   4.817992e-08 
  4.320000e+02   5.357439e-08 
  4.340000e+02   4.898164e-08 
  4.360000e+02   4.750162e-08 
  4.380000e+02   5.310513e-08 
  4.400000e+02   5.786239e-08 
  4.420000e+02   5.176842e-08 
  4.440000e+02   4.847971e-08 
  4.460000e+02   5.063570e-08 
  4.480000e+02   5.112929e-08 
  4.500000e+02   5.404671e-08 
  4.520000e+02   5.557314e-08 
  4.540000e+02   4.945612e-08 
  4.560000e+02   4.507526e-08 
  4.580000e+02   4.761209e-08 
  4.600000e+02   5.103987e-08 
  4.620000e+02   4.708532e-08 
  4.640000e+02   5.179729e-08 
  4.660000e+02   5.258244e-08 
  4.680000e+02   5.405054e-08 
  4.700000e+02   5.008219e-08 
  4.720000e+02   5.004398e-08 
  4.740000e+02   5.116288e-08 
  4.760000e+02   5.227037e-08 
  4.780000e+02   1.153210e-07 
  4.800000e+02   2.340809e-07 
  4.820000e+02   1.321110e-07 
  4.840000e+02   4.532495e-08 
  4.860000e+02   4.851034e-08 
  4.880000e+02   4.997028e-08 
  4.900000e+02   5.238359e-08 
  4.920000e+02   5.267285e-08 
  4.940000e+02   4.999067e-08 
  4.960000e+02   5.268910e-08 
  4.980000e+02   5.028522e-08 
  5.000000e+02   4.694760e-08 
  5.020000e+02   5.109319e-08 
  5.040000e+02   4.985985e-08 
  5.060000e+02   4.306867e-08 
  5.080000e+02   4.937096e-08 
  5.100000e+02   5.399293e-08 
  5.120000e+02   5.615614e-08 
  5.140000e+02   5.905895e-08 
  5.160000e+02   5.556678e-08 
  5.180000e+02   5.426761e-08 
  5.200000e+02   5.206775e-08 
  5.220000e+02   4.915330e-08 
  5.240000e+02   4.702158e-08 
  5.260000e+02   4.878423e-08 
  5.280000e+02   4.792115e-08 
  5.300000e+02   5.397208e-08 
  5.320000e+02   5.417133e-08 
  5.340000e+02   5.113876e-08 
  5.360000e+02   6.862567e-08 
  5.380000e+02   2.228531e-06 
  5.400000e+02   4.913058e-06 
  5.420000e+02   2.706098e-06 
  5.440000e+02   8.034725e-08 
  5.460000e+02   5.798828e-08 
  5.480000e+02   5.279603e-08 
  5.500000e+02   5.056353e-08 
  5.520000e+02   5.245293e-08 
  5.540000e+02   5.078718e-08 
  5.560000e+02   4.977310e-08 
  5.580000e+02   5.350665e-08 
  5.600000e+02   5.579323e-08 
  5.620000e+02   5.794083e-08 
  5.640000e+02   5.559785e-08 
  5.660000e+02   6.012088e-08 
  5.680000e+02   5.396037e-08 
  5.700000e+02   5.146353e-08 
  5.720000e+02   5.591897e-08 
  5.740000e+02   5.219393e-08 
  5.760000e+02   5.107303e-08 
  5.780000e+02   4.969627e-08 
  5.800000e+02   4.931327e-08 
  5.820000e+02   5.077726e-08 
  5.840000e+02   5.301965e-08 
  5.860000e+02   5.246234e-08 
  5.880000e+02   5.229444e-08 
  5.900000e+02   5.219514e-08 
  5.920000e+02   5.240716e-08 
  5.940000e+02   5.169637e-08 
  5.960000e+02   5.076624e-08 
  5.980000e+02   1.108310e-07 
  6.000000e+02   2.182287e-07 
  6.020000e+02   1.271324e-07 
  6.040000e+02   5.656305e-08 
  6.060000e+02   5.938391e-08 
  6.080000e+02   5.075834e-08 
  6.100000e+02   5.018022e-08 
  6.120000e+02   5.909489e-08 
  6.140000e+02   5.857163e-08 
  6.160000e+02   5.515834e-08 
  6.180000e+02   5.213782e-08 
  6.200000e+02   5.378286e-08 
  6.220000e+02   5.344695e-08 
  6.240000e+02   5.315156e-08 
  6.260000e+02   5.073857e-08 
  6.280000e+02   5.268353e-08 
  6.300000e+02   5.592334e-08 
  6.320000e+02   5.599171e-08 
  6.340000e+02   6.379546e-08 
  6.360000e+02   6.043104e-08 
  6.380000e+02   6.044394e-08 
  6.400000e+02   5.943858e-08 
  6.420000e+02   6.166886e-08 
  6.440000e+02   5.744132e-08 
  6.460000e+02   5.755644e-08 
  6.480000e+02   6.517454e-08 
  6.500000e+02   1.074543e-07 
  6.520000e+02   8.965526e-08 
  6.540000e+02   5.743086e-08 
  6.560000e+02   8.736835e-08 
  6.580000e+02   2.533438e-06 
  6.600000e+02   5.716568e-06 
  6.620000e+02   3.218702e-06 
  6.640000e+02   1.138225e-07 
  6.660000e+02   5.744387e-08 
  6.680000e+02   6.329887e-08 
  6.700000e+02   7.002732e-08 
  6.720000e+02   5.880408e-08 
  6.740000e+02   5.751890e-08 
  6.760000e+02   5.543763e-08 
  6.780000e+02   6.107853e-08 
  6.800000e+02   5.851366e-08 
  6.820000e+02   6.153460e-08 
  6.840000e+02   5.902487e-08 
  6.860000e+02   7.155603e-08 
  6.880000e+02   6.733109e-08 
  6.900000e+02   5.907104e-08 
  6.920000e+02   6.152952e-08 
  6.940000e+02   5.653683e-08 
  6.960000e+02   5.217327e-08 
  6.980000e+02   5.711625e-08 
  7.000000e+02   5.417845e-08 
  7.020000e+02   5.743193e-08 
  7.040000e+02   5.836250e-08 
  7.060000e+02   7.016188e-08 
  7.080000e+02   7.344044e-08 
  7.100000e+02   5.643041e-08 
  7.120000e+02   5.290324e-08 
  7.140000e+02   5.445200e-08 
  7.160000e+02   5.721104e-08 
  7.180000e+02   1.301323e-07 
  7.200000e+02   2.557912e-07 
  7.220000e+02   1.466115e-07 
  7.240000e+02   5.164179e-08 
  7.260000e+02   4.981736e-08 
  7.280000e+02   5.133136e-08 
  7.300000e+02   5.127845e-08 
  7.320000e+02   6.547510e-08 
  7.340000e+02   7.248262e-08 
  7.360000e+02   6.093516e-08 
  7.380000e+02   6.001852e-08 
  7.400000e+02   5.384995e-08 
  7.420000e+02   5.452608e-08 
  7.440000e+02   5.145541e-08 
  7.460000e+02   5.865502e-08 
  7.480000e+02   6.763852e-08 
  7.500000e+02   6.469437e-08 
  7.520000e+02   9.887942e-08 
  7.540000e+02   1.387245e-07 
  7.560000e+02   8.888664e-08 
  7.580000e+02   1.127916e-07 
  7.600000e+02   8.184755e-08 
  7.620000e+02   7.269374e-08 
  7.640000e+02   6.612159e-08 
  7.660000e+02   6.547731e-08 
  7.680000e+02   9.037375e-08 
  7.700000e+02   2.680041e-07 
  7.720000e+02   2.346842e-07 
  7.740000e+02   7.364438e-08 
  7.760000e+02   8.795098e-08 
  7.780000e+02   1.709846e-06 
  7.800000e+02   3.957946e-06 
  7.820000e+02   2.277062e-06 
  7.840000e+02   1.014447e-07 
  7.860000e+02   6.248774e-08 
  7.880000e+02   6.354679e-08 
  7.900000e+02   7.431353e-08 
  7.920000e+02   6.336823e-08 
  7.940000e+02   5.803094e-08 
  7.960000e+02   5.541471e-08 
  7.980000e+02   6.805060e-08 
  8.000000e+02   6.916135e-08 
  8.020000e+02   5.498066e-08 
  8.040000e+02   5.479096e-08 
  8.060000e+02   5.878427e-08 
  8.080000e+02   6.072976e-08 
  8.100000e+02   5.957285e-08 
  8.120000e+02   6.656033e-08 
  8.140000e+02   5.712370e-08 
  8.160000e+02   5.397622e-08 
  8.180000e+02   5.787146e-08 
  8.200000e+02   5.553331e-08 
  8.220000e+02   5.422327e-08 
  8.240000e+02   6.037945e-08 
  8.260000e+02   8.746687e-08 
  8.280000e+02   9.152010e-08 
  8.300000e+02   6.475858e-08 
  8.320000e+02   5.699767e-08 
  8.340000e+02   5.812173e-08 
  8.360000e+02   5.898436e-08 
  8.380000e+02   6.656876e-08 
  8.400000e+02   8.757500e-08 
  8.420000e+02   6.514863e-08 
  8.440000e+02   4.732718e-08 
  8.460000e+02   4.966785e-08 
  8.480000e+02   5.609543e-08 
  8.500000e+02   5.722496e-08 
  8.520000e+02   5.898722e-08 
  8.540000e+02   5.772789e-08 
  8.560000e+02   5.598118e-08 
  8.580000e+02   5.639466e-08 
  8.600000e+02   5.972451e-08 
  8.620000e+02   5.669725e-08 
  8.640000e+02   5.564771e-08 
  8.660000e+02   6.813648e-08 
  8.680000e+02   6.787717e-08 
  8.700000e+02   5.989565e-08 
  8.720000e+02   1.107453e-07 
  8.740000e+02   1.739478e-07 
  8.760000e+02   1.100307e-07 
  8.780000e+02   1.422540e-07 
  8.800000e+02   9.167483e-08 
  8.820000e+02   5.956501e-08 
  8.840000e+02   5.947903e-08 
  8.860000e+02   5.910650e-08 
  8.880000e+02   6.102657e-08 
  8.900000e+02   9.022646e-08 
  8.920000e+02   8.174617e-08 
  8.940000e+02   6.322239e-08 
  8.960000e+02   6.264648e-08 
  8.980000e+02   8.508770e-07 
  9.000000e+02   2.006647e-06 
  9.020000e+02   1.177339e-06 
  9.040000e+02   7.137506e-08 
  9.060000e+02   5.886647e-08 
  9.080000e+02   5.620631e-08 
  9.100000e+02   7.016437e-08 
  9.120000e+02   6.678428e-08 
  9.140000e+02   6.157204e-08 
  9.160000e+02   5.663300e-08 
  9.180000e+02   5.215578e-08 
  9.200000e+02   5.736266e-08 
  9.220000e+02   7.711508e-08 
  9.240000e+02   7.224074e-08 
  9.260000e+02   8.159034e-08 
  9.280000e+02   7.088518e-08 
  9.300000e+02   5.241448e-08 
  9.320000e+02   5.379859e-08 
  9.340000e+02   5.548656e-08 
  9.360000e+02   5.375750e-08 
  9.380000e+02   5.400783e-08 
  9.400000e+02   5.225808e-08 
  9.420000e+02   5.286317e-08 
  9.440000e+02   5.432149e-08 
  9.460000e+02   5.629389e-08 
  9.480000e+02   5.516564e-08 
  9.500000e+02   5.136215e-08 
  9.520000e+02   5.617092e-08 
  9.540000e+02   5.116944e-08 
  9.560000e+02   5.062923e-08 
  9.580000e+02   6.254984e-08 
  9.600000e+02   8.490921e-08 
  9.620000e+02   6.767038e-08 
  9.640000e+02   5.428082e-08 
  9.660000e+02   5.411378e-08 
  9.680000e+02   5.912543e-08 
  9.700000e+02   5.916789e-08 
  9.720000e+02   6.234809e-08 
  9.740000e+02   6.907286e-08 
  9.760000e+02   6.417610e-08 
  9.780000e+02   6.155995e-08 
  9.800000e+02   5.834825e-08 
  9.820000e+02   5.584669e-08 
  9.840000e+02   5.658139e-08 
  9.860000e+02   7.355784e-08 
  9.880000e+02   7.847082e-08 
  9.900000e+02   6.127362e-08 
  9.920000e+02   6.169386e-08 
  9.940000e+02   6.789090e-08 
  9.960000e+02   6.522943e-08 
  9.980000e+02   6.286104e-08 
  1.000000e+03   5.850701e-08 
  1.002000e+03   6.594332e-08 
  1.004000e+03   6.455252e-08 
  1.006000e+03   6.241365e-08 
  1.008000e+03   8.655907e-08 
  1.010000e+03   1.980879e-07 
  1.012000e+03   1.695233e-07 
  1.014000e+03   6.535340e-08 
  1.016000e+03   5.981981e-08 
  1.018000e+03   1.748201e-07 
  1.020000e+03   3.906088e-07 
  1.022000e+03   2.367145e-07 
  1.024000e+03   5.976195e-08 
  1.026000e+03   5.853522e-08 
  1.028000e+03   5.258086e-08 
  1.030000e+03   5.607647e-08 
  1.032000e+03   6.016473e-08 
  1.034000e+03   5.947486e-08 
  1.036000e+03   6.070930e-08 
  1.038000e+03   5.811227e-08 
  1.040000e+03   5.631673e-08 
  1.042000e+03   6.541543e-08 
  1.044000e+03   6.001405e-08 
  1.046000e+03   7.524674e-08 
  1.048000e+03   7.047689e-08 
  1.050000e+03   5.580548e-08 
  1.052000e+03   5.837105e-08 
  1.054000e+03   6.240677e-08 
  1.056000e+03   5.459000e-08 
  1.058000e+03   5.340588e-08 
  1.060000e+03   6.008352e-08 
  1.062000e+03   5.758266e-08 
  1.064000e+03   5.516519e-08 
  1.066000e+03   5.501923e-08 
  1.068000e+03   5.453163e-08 
  1.070000e+03   5.808663e-08 
  1.072000e+03   5.644875e-08 
  1.074000e+03   5.472817e-08 
  1.076000e+03   5.453632e-08 
  1.078000e+03   9.295317e-08 
  1.080000e+03   1.923258e-07 
  1.082000e+03   1.220014e-07 
  1.084000e+03   5.572222e-08 
  1.086000e+03   4.991371e-08 
  1.088000e+03   5.346627e-08 
  1.090000e+03   5.893521e-08 
  1.092000e+03   5.878664e-08 
  1.094000e+03   5.960084e-08 
  1.096000e+03   6.196587e-08 
  1.098000e+03   6.628392e-08 
  1.100000e+03   6.557045e-08 
  1.102000e+03   6.465006e-08 
  1.104000e+03   6.622284e-08 
  1.106000e+03   6.516283e-08 
  1.108000e+03   6.630097e-08 
  1.110000e+03   6.717031e-08 
  1.112000e+03   6.952595e-08 
  1.114000e+03   7.479930e-08 
  1.116000e+03   7.129528e-08 
  1.118000e+03   7.207309e-08 
  1.120000e+03   6.207024e-08 
  1.122000e+03   5.938839e-08 
  1.124000e+03   5.711874e-08 
  1.126000e+03   5.926618e-08 
  1.128000e+03   6.300229e-08 
  1.130000e+03   6.887316e-08 
  1.132000e+03   6.004020e-08 
  1.134000e+03   5.695805e-08 
  1.136000e+03   5.326941e-08 
  1.138000e+03   3.341137e-07 
  1.140000e+03   8.083936e-07 
  1.142000e+03   4.963577e-07 
  1.144000e+03   6.180139e-08 
  1.146000e+03   5.646637e-08 
  1.148000e+03   6.048156e-08 
  1.150000e+03   5.617116e-08 
  1.152000e+03   5.286285e-08 
  1.154000e+03   5.394377e-08 
  1.156000e+03   5.458416e-08 
  1.158000e+03   5.384079e-08 
  1.160000e+03   5.724034e-08 
  1.162000e+03   5.546553e-08 
  1.164000e+03   5.217145e-08 
  1.166000e+03   5.652894e-08 
  1.168000e+03   6.001299e-08 
  1.170000e+03   5.535602e-08 
  1.172000e+03   5.236573e-08 
  1.174000e+03   5.607595e-08 
  1.176000e+03   5.650642e-08 
  1.178000e+03   5.812770e-08 
  1.180000e+03   5.596351e-08 
  1.182000e+03   5.904808e-08 
  1.184000e+03   6.046312e-08 
  1.186000e+03   6.161861e-08 
  1.188000e+03   6.043182e-08 
  1.190000e+03   5.932800e-08 
  1.192000e+03   5.926933e-08 
  1.194000e+03   5.445030e-08 
  1.196000e+03   5.284862e-08 
  1.198000e+03   7.527559e-08 
  1.200000e+03   1.424973e-07 
  1.202000e+03   9.716346e-08 
  1.204000e+03   5.553658e-08 
  1.206000e+03   5.684512e-08 
  1.208000e+03   5.447777e-08 
  1.210000e+03   5.711548e-08 
  1.212000e+03   6.196839e-08 
  1.214000e+03   6.446452e-08 
  1.216000e+03   6.080428e-08 
  1.218000e+03   5.925567e-08 
  1.220000e+03   5.537731e-08 
  1.222000e+03   5.527484e-08 
  1.224000e+03   5.394484e-08 
  1.226000e+03   5.508989e-08 
  1.228000e+03   5.589911e-08 
  1.230000e+03   5.560048e-08 
  1.232000e+03   6.066593e-08 
  1.234000e+03   6.797191e-08 
  1.236000e+03   5.953366e-08 
  1.238000e+03   6.281218e-08 
  1.240000e+03   5.621294e-08 
  1.242000e+03   5.708303e-08 
  1.244000e+03   5.915133e-08 
  1.246000e+03   5.695548e-08 
  1.248000e+03   5.355545e-08 
  1.250000e+03   5.631374e-08 
  1.252000e+03   5.931837e-08 
  1.254000e+03   5.565555e-08 
  1.256000e+03   5.699252e-08 
  1.258000e+03   4.097479e-07 
  1.260000e+03   1.031606e-06 
  1.262000e+03   6.523231e-07 
  1.264000e+03   7.333132e-08 
  1.266000e+03   5.770296e-08 
  1.268000e+03   5.759978e-08 
  1.270000e+03   4.904802e-08 
  1.272000e+03   5.686306e-08 
  1.274000e+03   6.030416e-08 
  1.276000e+03   6.186679e-08 
  1.278000e+03   5.916091e-08 
  1.280000e+03   5.955239e-08 
  1.282000e+03   6.105903e-08 
  1.284000e+03   5.709367e-08 
  1.286000e+03   5.939860e-08 
  1.288000e+03   5.918992e-08 
  1.290000e+03   5.540938e-08 
  1.292000e+03   5.470458e-08 
  1.294000e+03   5.523264e-08 
  1.296000e+03   5.667136e-08 
  1.298000e+03   5.428020e-08 
  1.300000e+03   5.544531e-08 
  1.302000e+03   5.587172e-08 
  1.304000e+03   5.467323e-08 
  1.306000e+03   5.645526e-08 
  1.308000e+03   5.933742e-08 
  1.310000e+03   5.430000e-08 
  1.312000e+03   5.321713e-08 
  1.314000e+03   5.354275e-08 
  1.316000e+03   5.410507e-08 
  1.318000e+03   8.006590e-08 
  1.320000e+03   1.575091e-07 
  1.322000e+03   1.068657e-07 
  1.324000e+03   5.281491e-08 
  1.326000e+03   5.480014e-08 
  1.328000e+03   5.293807e-08 
  1.330000e+03   5.533009e-08 
  1.332000e+03   5.887625e-08 
  1.334000e+03   5.461536e-08 
  1.336000e+03   5.299301e-08 
  1.338000e+03   5.367112e-08 
  1.340000e+03   5.937371e-08 
  1.342000e+03   5.849159e-08 
  1.344000e+03   5.490046e-08 
  1.346000e+03   6.858060e-08 
  1.348000e+03   7.296902e-08 
  1.350000e+03   5.552671e-08 
  1.352000e+03   6.008711e-08 
  1.354000e+03   6.923315e-08 
  1.356000e+03   6.125256e-08 
  1.358000e+03   5.810234e-08 
  1.360000e+03   6.069861e-08 
  1.362000e+03   5.562545e-08 
  1.364000e+03   5.502913e-08 
  1.366000e+03   5.798641e-08 
  1.368000e+03   6.136881e-08 
  1.370000e+03   6.080175e-08 
  1.372000e+03   5.728797e-08 
  1.374000e+03   5.747611e-08 
  1.376000e+03   6.164658e-08 
  1.378000e+03   1.817992e-07 
  1.380000e+03   4.519386e-07 
  1.382000e+03   2.927055e-07 
  1.384000e+03   5.735597e-08 
  1.386000e+03   5.674968e-08 
  1.388000e+03   5.631117e-08 
  1.390000e+03   5.340716e-08 
  1.392000e+03   5.882147e-08 
  1.394000e+03   5.971065e-08 
  1.396000e+03   6.183531e-08 
  1.398000e+03   6.027881e-08 
  1.400000e+03   5.177907e-08 
  1.402000e+03   5.776221e-08 
  1.404000e+03   5.761241e-08 
  1.406000e+03   5.992685e-08 
  1.408000e+03   6.128922e-08 
  1.410000e+03   5.860881e-08 
  1.412000e+03   6.040543e-08 
  1.414000e+03   5.727857e-08 
  1.416000e+03   6.081782e-08 
  1.418000e+03   6.053980e-08 
  1.420000e+03   5.415111e-08 
  1.422000e+03   5.390939e-08 
  1.424000e+03   5.918451e-08 
  1.426000e+03   5.889589e-08 
  1.428000e+03   5.880407e-08 
  1.430000e+03   5.648370e-08 
  1.432000e+03   5.702390e-08 
  1.434000e+03   6.100465e-08 
  1.436000e+03   5.789572e-08 
  1.438000e+03   6.284930e-08 
  1.440000e+03   8.342929e-08 
  1.442000e+03   6.910381e-08 
  1.444000e+03   5.997589e-08 
  1.446000e+03   5.287373e-08 
  1.448000e+03   5.496929e-08 
  1.450000e+03   5.506004e-08 
  1.452000e+03   5.483648e-08 
  1.454000e+03   5.862442e-08 
  1.456000e+03   6.211790e-08 
  1.458000e+03   5.972076e-08 
  1.460000e+03   5.748672e-08 
  1.462000e+03   5.801661e-08 
  1.464000e+03   5.755760e-08 
  1.466000e+03   7.366528e-08 
  1.468000e+03   7.752092e-08 
  1.470000e+03   6.057227e-08 
  1.472000e+03   5.965875e-08 
  1.474000e+03   6.330519e-08 
  1.476000e+03   6.127920e-08 
  1.478000e+03   6.409756e-08 
  1.480000e+03   6.152897e-08 
  1.482000e+03   5.870865e-08 
  1.484000e+03   5.726885e-08 
  1.486000e+03   5.493831e-08 
  1.488000e+03   5.698601e-08 
  1.490000e+03   6.262020e-08 
  1.492000e+03   5.923619e-08 
  1.494000e+03   5.330572e-08 
  1.496000e+03   6.159402e-08 
  1.498000e+03   2.755575e-07 
  1.500000e+03   7.241892e-07 
  1.502000e+03   4.797847e-07 
  1.504000e+03   6.707581e-08 
  1.506000e+03   5.990527e-08 
  1.508000e+03   5.991932e-08 
  1.510000e+03   5.525205e-08 
  1.512000e+03   6.164164e-08 
  1.514000e+03   6.058222e-08 
  1.516000e+03   5.490825e-08 
  1.518000e+03   5.545591e-08 
  1.520000e+03   5.445163e-08 
  1.522000e+03   5.906631e-08 
  1.524000e+03   5.974395e-08 
  1.526000e+03   5.564250e-08 
  1.528000e+03   6.453197e-08 
  1.530000e+03   6.558136e-08 
  1.532000e+03   6.556165e-08 
  1.534000e+03   5.801310e-08 
  1.536000e+03   6.123972e-08 
  1.538000e+03   6.116944e-08 
  1.540000e+03   6.191308e-08 
  1.542000e+03   5.983989e-08 
  1.544000e+03   6.101535e-08 
  1.546000e+03   6.204844e-08 
  1.548000e+03   6.124829e-08 
  1.550000e+03   6.098410e-08 
  1.552000e+03   6.040641e-08 
  1.554000e+03   6.071384e-08 
  1.556000e+03   5.235266e-08 
  1.558000e+03   6.160830e-08 
  1.560000e+03   1.049120e-07 
  1.562000e+03   8.624440e-08 
  1.564000e+03   5.968344e-08 
  1.566000e+03   5.880390e-08 
  1.568000e+03   6.118324e-08 
  1.570000e+03   6.173959e-08 
  1.572000e+03   6.074196e-08 
  1.574000e+03   5.989211e-08 
  1.576000e+03   5.692801e-08 
  1.578000e+03   5.709382e-08 
  1.580000e+03   5.921224e-08 
  1.582000e+03   6.539581e-08 
  1.584000e+03   6.158133e-08 
  1.586000e+03   6.073063e-08 
  1.588000e+03   6.289122e-08 
  1.590000e+03   6.122895e-08 
  1.592000e+03   6.288128e-08 
  1.594000e+03   6.287566e-08 
  1.596000e+03   6.414550e-08 
  1.598000e+03   6.111661e-08 
  1.600000e+03   5.857971e-08 
