Input File: 20PD.78D
Measure Group: FFT
Measurement: FFT 1
Num of extracted Points: 801
Start Freq: -0 Hz
Span: 1.6 kHz
FFT Lines:  800 
Window: Hanning
Averaging Mode: RMS
Averaging Type: Exp. / Cont.
Number of Avg:   20
Overload reject: On

    X[Hz]      Vrms/Hz^(1/... 
  0.000000e+00   1.791282e-06 
  2.000000e+00   9.435657e-07 
  4.000000e+00   4.685279e-07 
  6.000000e+00   4.136917e-07 
  8.000000e+00   3.862143e-07 
  1.000000e+01   3.744760e-07 
  1.200000e+01   3.204031e-07 
  1.400000e+01   4.055485e-07 
  1.600000e+01   4.290229e-07 
  1.800000e+01   4.361057e-07 
  2.000000e+01   3.951070e-07 
  2.200000e+01   3.671048e-07 
  2.400000e+01   3.465551e-07 
  2.600000e+01   3.474058e-07 
  2.800000e+01   3.381597e-07 
  3.000000e+01   3.662242e-07 
  3.200000e+01   3.819953e-07 
  3.400000e+01   3.765997e-07 
  3.600000e+01   3.657097e-07 
  3.800000e+01   4.209288e-07 
  4.000000e+01   3.807764e-07 
  4.200000e+01   4.317601e-07 
  4.400000e+01   3.574613e-07 
  4.600000e+01   3.780835e-07 
  4.800000e+01   4.237221e-07 
  5.000000e+01   4.389992e-07 
  5.200000e+01   3.847118e-07 
  5.400000e+01   3.951246e-07 
  5.600000e+01   3.692375e-07 
  5.800000e+01   8.942658e-07 
  6.000000e+01   1.586742e-06 
  6.200000e+01   8.138813e-07 
  6.400000e+01   3.690857e-07 
  6.600000e+01   3.022521e-07 
  6.800000e+01   3.781981e-07 
  7.000000e+01   4.299253e-07 
  7.200000e+01   3.475878e-07 
  7.400000e+01   3.367721e-07 
  7.600000e+01   4.096029e-07 
  7.800000e+01   4.177343e-07 
  8.000000e+01   4.372059e-07 
  8.200000e+01   4.759556e-07 
  8.400000e+01   4.498346e-07 
  8.600000e+01   4.084938e-07 
  8.800000e+01   4.246093e-07 
  9.000000e+01   4.555459e-07 
  9.200000e+01   4.082216e-07 
  9.400000e+01   3.578211e-07 
  9.600000e+01   3.791480e-07 
  9.800000e+01   3.387535e-07 
  1.000000e+02   3.700879e-07 
  1.020000e+02   3.533328e-07 
  1.040000e+02   4.407756e-07 
  1.060000e+02   4.283437e-07 
  1.080000e+02   3.293351e-07 
  1.100000e+02   4.169312e-07 
  1.120000e+02   3.302957e-07 
  1.140000e+02   3.896352e-07 
  1.160000e+02   4.315882e-07 
  1.180000e+02   6.372916e-07 
  1.200000e+02   1.082789e-06 
  1.220000e+02   6.584476e-07 
  1.240000e+02   4.436823e-07 
  1.260000e+02   4.103706e-07 
  1.280000e+02   4.027484e-07 
  1.300000e+02   4.058188e-07 
  1.320000e+02   4.921725e-07 
  1.340000e+02   5.064896e-07 
  1.360000e+02   3.847451e-07 
  1.380000e+02   3.666143e-07 
  1.400000e+02   3.835924e-07 
  1.420000e+02   3.527648e-07 
  1.440000e+02   3.913366e-07 
  1.460000e+02   3.649817e-07 
  1.480000e+02   3.207325e-07 
  1.500000e+02   3.562377e-07 
  1.520000e+02   3.845467e-07 
  1.540000e+02   3.544925e-07 
  1.560000e+02   3.596619e-07 
  1.580000e+02   3.598313e-07 
  1.600000e+02   3.485810e-07 
  1.620000e+02   3.725474e-07 
  1.640000e+02   3.448339e-07 
  1.660000e+02   3.529551e-07 
  1.680000e+02   3.250734e-07 
  1.700000e+02   4.102753e-07 
  1.720000e+02   4.030692e-07 
  1.740000e+02   3.473454e-07 
  1.760000e+02   3.810730e-07 
  1.780000e+02   5.135598e-07 
  1.800000e+02   6.680387e-07 
  1.820000e+02   5.069036e-07 
  1.840000e+02   4.666752e-07 
  1.860000e+02   3.744664e-07 
  1.880000e+02   3.879345e-07 
  1.900000e+02   3.703136e-07 
  1.920000e+02   4.169632e-07 
  1.940000e+02   4.060490e-07 
  1.960000e+02   3.950647e-07 
  1.980000e+02   4.230654e-07 
  2.000000e+02   3.594612e-07 
  2.020000e+02   4.004021e-07 
  2.040000e+02   4.609245e-07 
  2.060000e+02   4.325286e-07 
  2.080000e+02   3.677573e-07 
  2.100000e+02   3.730381e-07 
  2.120000e+02   3.433854e-07 
  2.140000e+02   3.925099e-07 
  2.160000e+02   4.008364e-07 
  2.180000e+02   4.014804e-07 
  2.200000e+02   4.613601e-07 
  2.220000e+02   3.880372e-07 
  2.240000e+02   4.087186e-07 
  2.260000e+02   4.125304e-07 
  2.280000e+02   3.716393e-07 
  2.300000e+02   3.463724e-07 
  2.320000e+02   4.013778e-07 
  2.340000e+02   3.911635e-07 
  2.360000e+02   3.961084e-07 
  2.380000e+02   4.280863e-07 
  2.400000e+02   5.917055e-07 
  2.420000e+02   4.185234e-07 
  2.440000e+02   3.768959e-07 
  2.460000e+02   3.741269e-07 
  2.480000e+02   3.603289e-07 
  2.500000e+02   4.088512e-07 
  2.520000e+02   4.448594e-07 
  2.540000e+02   4.050697e-07 
  2.560000e+02   4.401192e-07 
  2.580000e+02   4.090876e-07 
  2.600000e+02   3.730401e-07 
  2.620000e+02   4.138452e-07 
  2.640000e+02   4.559722e-07 
  2.660000e+02   3.231109e-07 
  2.680000e+02   3.325875e-07 
  2.700000e+02   3.624564e-07 
  2.720000e+02   3.767441e-07 
  2.740000e+02   3.428800e-07 
  2.760000e+02   4.054023e-07 
  2.780000e+02   3.928096e-07 
  2.800000e+02   4.296588e-07 
  2.820000e+02   4.250234e-07 
  2.840000e+02   3.134855e-07 
  2.860000e+02   3.101070e-07 
  2.880000e+02   3.000276e-07 
  2.900000e+02   3.135356e-07 
  2.920000e+02   3.507785e-07 
  2.940000e+02   4.115793e-07 
  2.960000e+02   4.164912e-07 
  2.980000e+02   4.452542e-07 
  3.000000e+02   5.157323e-07 
  3.020000e+02   4.338653e-07 
  3.040000e+02   3.756806e-07 
  3.060000e+02   3.563029e-07 
  3.080000e+02   3.662572e-07 
  3.100000e+02   3.533929e-07 
  3.120000e+02   3.454657e-07 
  3.140000e+02   3.733689e-07 
  3.160000e+02   3.692085e-07 
  3.180000e+02   3.821262e-07 
  3.200000e+02   4.232294e-07 
  3.220000e+02   4.569312e-07 
  3.240000e+02   4.385459e-07 
  3.260000e+02   3.087358e-07 
  3.280000e+02   3.367142e-07 
  3.300000e+02   3.274768e-07 
  3.320000e+02   3.156568e-07 
  3.340000e+02   3.720264e-07 
  3.360000e+02   4.663215e-07 
  3.380000e+02   4.424224e-07 
  3.400000e+02   4.242327e-07 
  3.420000e+02   4.428911e-07 
  3.440000e+02   3.781643e-07 
  3.460000e+02   4.057464e-07 
  3.480000e+02   4.316777e-07 
  3.500000e+02   4.225998e-07 
  3.520000e+02   4.542659e-07 
  3.540000e+02   4.065175e-07 
  3.560000e+02   4.295933e-07 
  3.580000e+02   4.482847e-07 
  3.600000e+02   4.426609e-07 
  3.620000e+02   4.128628e-07 
  3.640000e+02   3.711068e-07 
  3.660000e+02   3.680381e-07 
  3.680000e+02   4.235521e-07 
  3.700000e+02   4.144078e-07 
  3.720000e+02   4.073309e-07 
  3.740000e+02   4.138206e-07 
  3.760000e+02   4.228618e-07 
  3.780000e+02   4.017896e-07 
  3.800000e+02   3.834402e-07 
  3.820000e+02   4.741283e-07 
  3.840000e+02   3.692238e-07 
  3.860000e+02   4.099820e-07 
  3.880000e+02   4.222371e-07 
  3.900000e+02   3.790506e-07 
  3.920000e+02   3.076109e-07 
  3.940000e+02   3.780376e-07 
  3.960000e+02   4.436024e-07 
  3.980000e+02   3.580679e-07 
  4.000000e+02   3.637388e-07 
  4.020000e+02   3.316671e-07 
  4.040000e+02   3.068749e-07 
  4.060000e+02   3.633342e-07 
  4.080000e+02   4.558841e-07 
  4.100000e+02   4.307840e-07 
  4.120000e+02   4.294156e-07 
  4.140000e+02   3.610043e-07 
  4.160000e+02   3.275973e-07 
  4.180000e+02   4.551083e-07 
  4.200000e+02   6.709425e-07 
  4.220000e+02   4.751947e-07 
  4.240000e+02   3.850756e-07 
  4.260000e+02   3.668657e-07 
  4.280000e+02   3.434450e-07 
  4.300000e+02   4.195405e-07 
  4.320000e+02   4.197469e-07 
  4.340000e+02   3.908605e-07 
  4.360000e+02   3.655676e-07 
  4.380000e+02   3.390762e-07 
  4.400000e+02   4.368719e-07 
  4.420000e+02   5.039419e-07 
  4.440000e+02   4.578501e-07 
  4.460000e+02   4.144113e-07 
  4.480000e+02   4.064657e-07 
  4.500000e+02   3.751759e-07 
  4.520000e+02   4.325788e-07 
  4.540000e+02   4.549616e-07 
  4.560000e+02   3.711080e-07 
  4.580000e+02   3.516695e-07 
  4.600000e+02   3.419806e-07 
  4.620000e+02   3.675940e-07 
  4.640000e+02   4.392227e-07 
  4.660000e+02   4.551306e-07 
  4.680000e+02   4.064275e-07 
  4.700000e+02   3.618374e-07 
  4.720000e+02   3.475636e-07 
  4.740000e+02   4.450958e-07 
  4.760000e+02   4.335248e-07 
  4.780000e+02   4.491179e-07 
  4.800000e+02   3.564899e-07 
  4.820000e+02   3.558473e-07 
  4.840000e+02   3.335011e-07 
  4.860000e+02   3.569168e-07 
  4.880000e+02   3.962718e-07 
  4.900000e+02   4.364241e-07 
  4.920000e+02   4.175125e-07 
  4.940000e+02   3.954940e-07 
  4.960000e+02   4.043123e-07 
  4.980000e+02   3.977287e-07 
  5.000000e+02   4.248636e-07 
  5.020000e+02   4.117280e-07 
  5.040000e+02   3.926488e-07 
  5.060000e+02   4.161616e-07 
  5.080000e+02   4.087804e-07 
  5.100000e+02   4.223194e-07 
  5.120000e+02   4.063513e-07 
  5.140000e+02   3.336661e-07 
  5.160000e+02   4.456306e-07 
  5.180000e+02   3.708549e-07 
  5.200000e+02   2.896174e-07 
  5.220000e+02   2.956259e-07 
  5.240000e+02   3.626137e-07 
  5.260000e+02   3.697189e-07 
  5.280000e+02   3.884244e-07 
  5.300000e+02   4.002332e-07 
  5.320000e+02   4.126962e-07 
  5.340000e+02   3.466464e-07 
  5.360000e+02   4.234066e-07 
  5.380000e+02   4.146050e-07 
  5.400000e+02   3.784125e-07 
  5.420000e+02   3.795302e-07 
  5.440000e+02   3.459056e-07 
  5.460000e+02   3.242192e-07 
  5.480000e+02   3.093865e-07 
  5.500000e+02   3.179842e-07 
  5.520000e+02   3.654087e-07 
  5.540000e+02   3.861389e-07 
  5.560000e+02   3.733107e-07 
  5.580000e+02   3.666546e-07 
  5.600000e+02   3.667058e-07 
  5.620000e+02   4.459906e-07 
  5.640000e+02   5.021024e-07 
  5.660000e+02   4.219851e-07 
  5.680000e+02   3.915296e-07 
  5.700000e+02   3.488215e-07 
  5.720000e+02   3.282711e-07 
  5.740000e+02   3.659340e-07 
  5.760000e+02   3.339122e-07 
  5.780000e+02   3.566958e-07 
  5.800000e+02   4.296764e-07 
  5.820000e+02   4.113082e-07 
  5.840000e+02   3.960658e-07 
  5.860000e+02   3.933963e-07 
  5.880000e+02   3.629295e-07 
  5.900000e+02   3.744169e-07 
  5.920000e+02   4.100530e-07 
  5.940000e+02   4.649767e-07 
  5.960000e+02   4.820010e-07 
  5.980000e+02   4.590909e-07 
  6.000000e+02   3.737565e-07 
  6.020000e+02   3.716693e-07 
  6.040000e+02   3.473084e-07 
  6.060000e+02   2.952593e-07 
  6.080000e+02   3.745877e-07 
  6.100000e+02   4.471363e-07 
  6.120000e+02   4.165988e-07 
  6.140000e+02   3.069047e-07 
  6.160000e+02   3.605143e-07 
  6.180000e+02   4.358039e-07 
  6.200000e+02   3.945624e-07 
  6.220000e+02   3.505037e-07 
  6.240000e+02   3.763095e-07 
  6.260000e+02   3.982105e-07 
  6.280000e+02   4.208633e-07 
  6.300000e+02   4.212428e-07 
  6.320000e+02   4.206012e-07 
  6.340000e+02   4.614198e-07 
  6.360000e+02   4.597702e-07 
  6.380000e+02   3.760162e-07 
  6.400000e+02   3.539982e-07 
  6.420000e+02   3.363511e-07 
  6.440000e+02   4.037597e-07 
  6.460000e+02   4.542156e-07 
  6.480000e+02   4.709079e-07 
  6.500000e+02   4.112290e-07 
  6.520000e+02   3.359381e-07 
  6.540000e+02   3.095364e-07 
  6.560000e+02   3.654633e-07 
  6.580000e+02   3.601720e-07 
  6.600000e+02   3.869352e-07 
  6.620000e+02   3.910841e-07 
  6.640000e+02   3.263737e-07 
  6.660000e+02   2.665202e-07 
  6.680000e+02   3.722702e-07 
  6.700000e+02   4.030034e-07 
  6.720000e+02   3.766026e-07 
  6.740000e+02   3.643027e-07 
  6.760000e+02   3.437771e-07 
  6.780000e+02   3.958654e-07 
  6.800000e+02   3.615417e-07 
  6.820000e+02   3.857009e-07 
  6.840000e+02   3.757503e-07 
  6.860000e+02   3.548723e-07 
  6.880000e+02   3.854262e-07 
  6.900000e+02   3.302765e-07 
  6.920000e+02   3.104853e-07 
  6.940000e+02   3.403048e-07 
  6.960000e+02   3.894295e-07 
  6.980000e+02   4.073898e-07 
  7.000000e+02   4.277967e-07 
  7.020000e+02   3.691717e-07 
  7.040000e+02   3.544913e-07 
  7.060000e+02   3.467023e-07 
  7.080000e+02   2.871903e-07 
  7.100000e+02   2.887544e-07 
  7.120000e+02   4.007075e-07 
  7.140000e+02   4.434856e-07 
  7.160000e+02   4.224437e-07 
  7.180000e+02   4.339423e-07 
  7.200000e+02   4.899798e-07 
  7.220000e+02   4.242887e-07 
  7.240000e+02   4.535823e-07 
  7.260000e+02   3.990146e-07 
  7.280000e+02   3.767144e-07 
  7.300000e+02   3.969206e-07 
  7.320000e+02   3.387247e-07 
  7.340000e+02   3.593962e-07 
  7.360000e+02   3.523424e-07 
  7.380000e+02   3.859410e-07 
  7.400000e+02   4.145273e-07 
  7.420000e+02   4.315183e-07 
  7.440000e+02   4.386416e-07 
  7.460000e+02   3.588630e-07 
  7.480000e+02   4.015564e-07 
  7.500000e+02   3.872393e-07 
  7.520000e+02   3.277842e-07 
  7.540000e+02   3.753499e-07 
  7.560000e+02   3.617095e-07 
  7.580000e+02   3.567287e-07 
  7.600000e+02   4.983917e-07 
  7.620000e+02   4.842304e-07 
  7.640000e+02   3.852287e-07 
  7.660000e+02   3.364168e-07 
  7.680000e+02   3.391652e-07 
  7.700000e+02   3.423531e-07 
  7.720000e+02   3.311162e-07 
  7.740000e+02   3.615852e-07 
  7.760000e+02   3.557043e-07 
  7.780000e+02   3.985128e-07 
  7.800000e+02   3.529672e-07 
  7.820000e+02   3.188398e-07 
  7.840000e+02   3.507698e-07 
  7.860000e+02   3.494428e-07 
  7.880000e+02   3.873149e-07 
  7.900000e+02   4.320344e-07 
  7.920000e+02   4.214234e-07 
  7.940000e+02   3.875655e-07 
  7.960000e+02   3.533963e-07 
  7.980000e+02   3.894796e-07 
  8.000000e+02   3.697917e-07 
  8.020000e+02   3.637161e-07 
  8.040000e+02   3.678178e-07 
  8.060000e+02   3.695038e-07 
  8.080000e+02   4.185792e-07 
  8.100000e+02   4.428819e-07 
  8.120000e+02   4.017932e-07 
  8.140000e+02   3.259743e-07 
  8.160000e+02   3.032879e-07 
  8.180000e+02   4.112672e-07 
  8.200000e+02   3.767649e-07 
  8.220000e+02   4.079875e-07 
  8.240000e+02   3.588850e-07 
  8.260000e+02   3.252594e-07 
  8.280000e+02   3.515800e-07 
  8.300000e+02   4.078245e-07 
  8.320000e+02   4.036839e-07 
  8.340000e+02   3.911109e-07 
  8.360000e+02   3.615033e-07 
  8.380000e+02   3.695540e-07 
  8.400000e+02   3.725812e-07 
  8.420000e+02   3.932740e-07 
  8.440000e+02   4.367699e-07 
  8.460000e+02   3.534972e-07 
  8.480000e+02   4.026764e-07 
  8.500000e+02   4.352275e-07 
  8.520000e+02   3.613434e-07 
  8.540000e+02   3.739333e-07 
  8.560000e+02   4.879978e-07 
  8.580000e+02   4.592054e-07 
  8.600000e+02   3.722060e-07 
  8.620000e+02   3.447333e-07 
  8.640000e+02   3.489309e-07 
  8.660000e+02   3.662492e-07 
  8.680000e+02   4.184221e-07 
  8.700000e+02   4.648156e-07 
  8.720000e+02   4.133366e-07 
  8.740000e+02   3.903058e-07 
  8.760000e+02   3.729218e-07 
  8.780000e+02   3.716233e-07 
  8.800000e+02   3.832925e-07 
  8.820000e+02   3.287781e-07 
  8.840000e+02   3.474612e-07 
  8.860000e+02   3.897664e-07 
  8.880000e+02   4.463330e-07 
  8.900000e+02   3.718842e-07 
  8.920000e+02   3.951463e-07 
  8.940000e+02   3.574937e-07 
  8.960000e+02   3.941881e-07 
  8.980000e+02   3.545769e-07 
  9.000000e+02   3.811466e-07 
  9.020000e+02   3.262346e-07 
  9.040000e+02   3.455661e-07 
  9.060000e+02   3.586590e-07 
  9.080000e+02   3.711480e-07 
  9.100000e+02   4.138536e-07 
  9.120000e+02   3.921149e-07 
  9.140000e+02   3.166889e-07 
  9.160000e+02   3.656039e-07 
  9.180000e+02   3.877323e-07 
  9.200000e+02   4.361878e-07 
  9.220000e+02   3.958575e-07 
  9.240000e+02   3.897137e-07 
  9.260000e+02   3.562940e-07 
  9.280000e+02   3.612761e-07 
  9.300000e+02   3.703634e-07 
  9.320000e+02   3.174902e-07 
  9.340000e+02   3.465874e-07 
  9.360000e+02   4.038794e-07 
  9.380000e+02   3.490009e-07 
  9.400000e+02   3.852390e-07 
  9.420000e+02   4.784245e-07 
  9.440000e+02   4.114247e-07 
  9.460000e+02   4.128736e-07 
  9.480000e+02   4.024154e-07 
  9.500000e+02   3.718520e-07 
  9.520000e+02   3.064074e-07 
  9.540000e+02   2.877026e-07 
  9.560000e+02   3.375211e-07 
  9.580000e+02   3.569585e-07 
  9.600000e+02   3.230513e-07 
  9.620000e+02   3.952669e-07 
  9.640000e+02   4.238921e-07 
  9.660000e+02   3.923341e-07 
  9.680000e+02   3.832440e-07 
  9.700000e+02   4.395989e-07 
  9.720000e+02   3.608268e-07 
  9.740000e+02   3.194400e-07 
  9.760000e+02   3.698737e-07 
  9.780000e+02   3.747641e-07 
  9.800000e+02   3.088685e-07 
  9.820000e+02   3.210347e-07 
  9.840000e+02   4.095650e-07 
  9.860000e+02   4.159057e-07 
  9.880000e+02   4.184455e-07 
  9.900000e+02   3.806943e-07 
  9.920000e+02   3.233088e-07 
  9.940000e+02   3.992150e-07 
  9.960000e+02   4.122048e-07 
  9.980000e+02   3.598481e-07 
  1.000000e+03   3.436216e-07 
  1.002000e+03   3.269211e-07 
  1.004000e+03   2.720653e-07 
  1.006000e+03   3.492307e-07 
  1.008000e+03   3.888954e-07 
  1.010000e+03   3.282658e-07 
  1.012000e+03   3.627426e-07 
  1.014000e+03   4.122469e-07 
  1.016000e+03   3.597086e-07 
  1.018000e+03   3.569102e-07 
  1.020000e+03   3.858457e-07 
  1.022000e+03   3.572231e-07 
  1.024000e+03   3.720101e-07 
  1.026000e+03   4.264869e-07 
  1.028000e+03   3.944222e-07 
  1.030000e+03   3.779018e-07 
  1.032000e+03   3.668072e-07 
  1.034000e+03   3.857196e-07 
  1.036000e+03   3.527161e-07 
  1.038000e+03   3.240559e-07 
  1.040000e+03   3.764579e-07 
  1.042000e+03   3.269716e-07 
  1.044000e+03   3.525851e-07 
  1.046000e+03   4.200911e-07 
  1.048000e+03   4.032382e-07 
  1.050000e+03   3.884365e-07 
  1.052000e+03   3.866746e-07 
  1.054000e+03   4.310998e-07 
  1.056000e+03   4.375241e-07 
  1.058000e+03   4.436469e-07 
  1.060000e+03   4.086967e-07 
  1.062000e+03   3.496539e-07 
  1.064000e+03   3.713600e-07 
  1.066000e+03   3.921275e-07 
  1.068000e+03   3.627332e-07 
  1.070000e+03   3.177236e-07 
  1.072000e+03   3.091535e-07 
  1.074000e+03   3.614745e-07 
  1.076000e+03   4.098070e-07 
  1.078000e+03   3.740414e-07 
  1.080000e+03   3.769132e-07 
  1.082000e+03   3.860171e-07 
  1.084000e+03   3.463956e-07 
  1.086000e+03   3.740524e-07 
  1.088000e+03   3.787227e-07 
  1.090000e+03   3.639778e-07 
  1.092000e+03   2.656874e-07 
  1.094000e+03   3.548360e-07 
  1.096000e+03   4.185959e-07 
  1.098000e+03   4.119785e-07 
  1.100000e+03   4.018219e-07 
  1.102000e+03   3.916286e-07 
  1.104000e+03   3.719550e-07 
  1.106000e+03   3.213956e-07 
  1.108000e+03   3.622563e-07 
  1.110000e+03   3.610011e-07 
  1.112000e+03   3.137077e-07 
  1.114000e+03   3.107920e-07 
  1.116000e+03   3.376957e-07 
  1.118000e+03   3.137255e-07 
  1.120000e+03   4.100594e-07 
  1.122000e+03   4.577888e-07 
  1.124000e+03   4.500632e-07 
  1.126000e+03   3.651147e-07 
  1.128000e+03   3.796061e-07 
  1.130000e+03   3.882154e-07 
  1.132000e+03   3.517025e-07 
  1.134000e+03   3.640895e-07 
  1.136000e+03   3.855573e-07 
  1.138000e+03   3.889889e-07 
  1.140000e+03   4.038900e-07 
  1.142000e+03   3.608126e-07 
  1.144000e+03   3.944246e-07 
  1.146000e+03   4.283235e-07 
  1.148000e+03   4.006625e-07 
  1.150000e+03   4.002569e-07 
  1.152000e+03   3.829742e-07 
  1.154000e+03   3.743100e-07 
  1.156000e+03   3.355242e-07 
  1.158000e+03   3.771459e-07 
  1.160000e+03   4.310048e-07 
  1.162000e+03   4.384454e-07 
  1.164000e+03   3.302331e-07 
  1.166000e+03   3.755005e-07 
  1.168000e+03   4.511433e-07 
  1.170000e+03   3.480137e-07 
  1.172000e+03   3.481522e-07 
  1.174000e+03   4.265677e-07 
  1.176000e+03   4.091582e-07 
  1.178000e+03   3.985988e-07 
  1.180000e+03   3.750893e-07 
  1.182000e+03   3.753171e-07 
  1.184000e+03   4.026962e-07 
  1.186000e+03   3.616458e-07 
  1.188000e+03   3.554862e-07 
  1.190000e+03   4.111007e-07 
  1.192000e+03   3.913870e-07 
  1.194000e+03   3.449866e-07 
  1.196000e+03   3.688621e-07 
  1.198000e+03   4.236544e-07 
  1.200000e+03   4.268517e-07 
  1.202000e+03   4.514373e-07 
  1.204000e+03   3.961897e-07 
  1.206000e+03   3.746621e-07 
  1.208000e+03   3.608497e-07 
  1.210000e+03   3.132749e-07 
  1.212000e+03   3.301867e-07 
  1.214000e+03   3.346541e-07 
  1.216000e+03   3.338066e-07 
  1.218000e+03   3.624962e-07 
  1.220000e+03   4.053520e-07 
  1.222000e+03   4.121190e-07 
  1.224000e+03   3.771752e-07 
  1.226000e+03   3.967169e-07 
  1.228000e+03   3.631516e-07 
  1.230000e+03   3.649284e-07 
  1.232000e+03   3.760557e-07 
  1.234000e+03   3.945151e-07 
  1.236000e+03   3.914870e-07 
  1.238000e+03   3.424920e-07 
  1.240000e+03   3.594744e-07 
  1.242000e+03   3.387940e-07 
  1.244000e+03   3.062203e-07 
  1.246000e+03   3.386769e-07 
  1.248000e+03   3.530150e-07 
  1.250000e+03   4.135736e-07 
  1.252000e+03   3.735706e-07 
  1.254000e+03   3.632634e-07 
  1.256000e+03   3.753076e-07 
  1.258000e+03   3.558072e-07 
  1.260000e+03   3.627361e-07 
  1.262000e+03   3.356220e-07 
  1.264000e+03   3.040937e-07 
  1.266000e+03   3.831967e-07 
  1.268000e+03   4.260112e-07 
  1.270000e+03   4.553367e-07 
  1.272000e+03   4.507224e-07 
  1.274000e+03   4.148064e-07 
  1.276000e+03   4.324120e-07 
  1.278000e+03   3.804970e-07 
  1.280000e+03   3.635296e-07 
  1.282000e+03   3.964970e-07 
  1.284000e+03   3.600271e-07 
  1.286000e+03   3.208128e-07 
  1.288000e+03   3.444295e-07 
  1.290000e+03   3.926241e-07 
  1.292000e+03   4.070882e-07 
  1.294000e+03   3.800189e-07 
  1.296000e+03   3.548798e-07 
  1.298000e+03   2.995170e-07 
  1.300000e+03   3.138273e-07 
  1.302000e+03   3.628493e-07 
  1.304000e+03   3.685033e-07 
  1.306000e+03   3.592912e-07 
  1.308000e+03   3.570642e-07 
  1.310000e+03   4.085442e-07 
  1.312000e+03   3.548492e-07 
  1.314000e+03   3.745380e-07 
  1.316000e+03   3.645294e-07 
  1.318000e+03   2.720200e-07 
  1.320000e+03   3.654789e-07 
  1.322000e+03   4.419055e-07 
  1.324000e+03   4.283964e-07 
  1.326000e+03   4.081786e-07 
  1.328000e+03   3.379667e-07 
  1.330000e+03   3.423425e-07 
  1.332000e+03   3.720268e-07 
  1.334000e+03   3.862936e-07 
  1.336000e+03   3.791226e-07 
  1.338000e+03   3.904552e-07 
  1.340000e+03   3.760998e-07 
  1.342000e+03   3.746468e-07 
  1.344000e+03   3.535019e-07 
  1.346000e+03   3.790246e-07 
  1.348000e+03   4.203626e-07 
  1.350000e+03   3.582498e-07 
  1.352000e+03   3.306665e-07 
  1.354000e+03   3.875803e-07 
  1.356000e+03   3.778769e-07 
  1.358000e+03   3.892293e-07 
  1.360000e+03   3.754267e-07 
  1.362000e+03   3.971420e-07 
  1.364000e+03   3.565865e-07 
  1.366000e+03   3.104894e-07 
  1.368000e+03   3.572472e-07 
  1.370000e+03   3.596476e-07 
  1.372000e+03   3.549069e-07 
  1.374000e+03   3.706782e-07 
  1.376000e+03   4.262280e-07 
  1.378000e+03   4.010706e-07 
  1.380000e+03   3.670385e-07 
  1.382000e+03   4.629171e-07 
  1.384000e+03   4.148173e-07 
  1.386000e+03   3.645447e-07 
  1.388000e+03   3.592693e-07 
  1.390000e+03   3.657551e-07 
  1.392000e+03   3.590304e-07 
  1.394000e+03   3.451285e-07 
  1.396000e+03   3.716950e-07 
  1.398000e+03   4.111287e-07 
  1.400000e+03   4.138421e-07 
  1.402000e+03   4.584974e-07 
  1.404000e+03   4.751823e-07 
  1.406000e+03   4.540221e-07 
  1.408000e+03   4.314620e-07 
  1.410000e+03   3.598593e-07 
  1.412000e+03   2.978090e-07 
  1.414000e+03   3.755381e-07 
  1.416000e+03   3.063140e-07 
  1.418000e+03   3.230972e-07 
  1.420000e+03   4.105164e-07 
  1.422000e+03   4.324651e-07 
  1.424000e+03   4.219257e-07 
  1.426000e+03   3.907481e-07 
  1.428000e+03   3.835516e-07 
  1.430000e+03   3.437754e-07 
  1.432000e+03   3.402176e-07 
  1.434000e+03   3.620019e-07 
  1.436000e+03   4.349183e-07 
  1.438000e+03   4.216018e-07 
  1.440000e+03   3.640609e-07 
  1.442000e+03   3.801272e-07 
  1.444000e+03   4.285894e-07 
  1.446000e+03   3.608409e-07 
  1.448000e+03   3.203726e-07 
  1.450000e+03   3.522022e-07 
  1.452000e+03   4.093736e-07 
  1.454000e+03   3.828825e-07 
  1.456000e+03   3.761440e-07 
  1.458000e+03   3.531068e-07 
  1.460000e+03   3.574072e-07 
  1.462000e+03   3.976352e-07 
  1.464000e+03   4.455745e-07 
  1.466000e+03   4.484498e-07 
  1.468000e+03   3.945117e-07 
  1.470000e+03   3.775550e-07 
  1.472000e+03   3.803452e-07 
  1.474000e+03   3.967201e-07 
  1.476000e+03   3.220855e-07 
  1.478000e+03   3.501582e-07 
  1.480000e+03   3.397590e-07 
  1.482000e+03   3.808949e-07 
  1.484000e+03   3.715788e-07 
  1.486000e+03   4.310913e-07 
  1.488000e+03   4.092067e-07 
  1.490000e+03   4.190206e-07 
  1.492000e+03   4.138330e-07 
  1.494000e+03   3.501937e-07 
  1.496000e+03   3.562635e-07 
  1.498000e+03   3.980822e-07 
  1.500000e+03   4.301107e-07 
  1.502000e+03   3.397724e-07 
  1.504000e+03   2.851405e-07 
  1.506000e+03   3.732200e-07 
  1.508000e+03   4.071955e-07 
  1.510000e+03   3.903994e-07 
  1.512000e+03   3.488474e-07 
  1.514000e+03   3.808183e-07 
  1.516000e+03   4.492273e-07 
  1.518000e+03   4.129176e-07 
  1.520000e+03   3.393103e-07 
  1.522000e+03   3.460483e-07 
  1.524000e+03   4.182026e-07 
  1.526000e+03   3.940724e-07 
  1.528000e+03   3.294348e-07 
  1.530000e+03   3.661799e-07 
  1.532000e+03   3.295549e-07 
  1.534000e+03   3.364806e-07 
  1.536000e+03   3.382027e-07 
  1.538000e+03   3.659732e-07 
  1.540000e+03   3.428269e-07 
  1.542000e+03   2.796707e-07 
  1.544000e+03   3.360652e-07 
  1.546000e+03   3.388522e-07 
  1.548000e+03   3.694249e-07 
  1.550000e+03   3.638471e-07 
  1.552000e+03   3.758721e-07 
  1.554000e+03   3.452017e-07 
  1.556000e+03   3.893125e-07 
  1.558000e+03   3.547631e-07 
  1.560000e+03   3.668248e-07 
  1.562000e+03   3.961212e-07 
  1.564000e+03   4.661707e-07 
  1.566000e+03   4.116467e-07 
  1.568000e+03   2.973072e-07 
  1.570000e+03   3.208649e-07 
  1.572000e+03   4.669108e-07 
  1.574000e+03   4.580438e-07 
  1.576000e+03   3.921917e-07 
  1.578000e+03   3.957101e-07 
  1.580000e+03   3.279593e-07 
  1.582000e+03   3.845009e-07 
  1.584000e+03   3.602703e-07 
  1.586000e+03   3.434973e-07 
  1.588000e+03   4.235735e-07 
  1.590000e+03   4.165358e-07 
  1.592000e+03   3.752250e-07 
  1.594000e+03   3.151427e-07 
  1.596000e+03   3.634484e-07 
  1.598000e+03   3.902297e-07 
  1.600000e+03   3.292967e-07 
