Input File: 20SN.78D
Measure Group: FFT
Measurement: FFT 1
Num of extracted Points: 801
Start Freq: -0 Hz
Span: 1.6 kHz
FFT Lines:  800 
Window: Hanning
Averaging Mode: RMS
Averaging Type: Exp. / Cont.
Number of Avg:   30
Overload reject: On

    X[Hz]      Vrms/Hz^(1/... 
  0.000000e+00   7.210217e-01 
  2.000000e+00   3.609942e-01 
  4.000000e+00   5.163176e-03 
  6.000000e+00   3.848257e-03 
  8.000000e+00   3.882777e-03 
  1.000000e+01   3.920695e-03 
  1.200000e+01   3.406136e-03 
  1.400000e+01   3.223648e-03 
  1.600000e+01   3.654900e-03 
  1.800000e+01   3.128919e-03 
  2.000000e+01   2.768733e-03 
  2.200000e+01   3.029513e-03 
  2.400000e+01   3.084273e-03 
  2.600000e+01   2.631007e-03 
  2.800000e+01   2.676494e-03 
  3.000000e+01   2.417843e-03 
  3.200000e+01   2.112513e-03 
  3.400000e+01   2.287793e-03 
  3.600000e+01   2.199329e-03 
  3.800000e+01   2.085038e-03 
  4.000000e+01   2.105378e-03 
  4.200000e+01   1.941210e-03 
  4.400000e+01   1.878401e-03 
  4.600000e+01   1.993386e-03 
  4.800000e+01   1.910716e-03 
  5.000000e+01   1.780105e-03 
  5.200000e+01   1.782837e-03 
  5.400000e+01   1.666695e-03 
  5.600000e+01   1.700010e-03 
  5.800000e+01   1.724636e-03 
  6.000000e+01   1.699647e-03 
  6.200000e+01   1.609379e-03 
  6.400000e+01   1.517924e-03 
  6.600000e+01   1.366324e-03 
  6.800000e+01   1.373685e-03 
  7.000000e+01   1.368362e-03 
  7.200000e+01   1.293256e-03 
  7.400000e+01   1.353641e-03 
  7.600000e+01   1.326924e-03 
  7.800000e+01   1.320649e-03 
  8.000000e+01   1.287579e-03 
  8.200000e+01   1.182337e-03 
  8.400000e+01   1.064788e-03 
  8.600000e+01   1.106552e-03 
  8.800000e+01   1.136889e-03 
  9.000000e+01   1.070280e-03 
  9.200000e+01   9.780391e-04 
  9.400000e+01   1.081929e-03 
  9.600000e+01   1.074028e-03 
  9.800000e+01   1.055045e-03 
  1.000000e+02   1.036083e-03 
  1.020000e+02   1.004340e-03 
  1.040000e+02   1.019414e-03 
  1.060000e+02   1.019057e-03 
  1.080000e+02   9.634179e-04 
  1.100000e+02   8.298842e-04 
  1.120000e+02   7.730942e-04 
  1.140000e+02   8.346065e-04 
  1.160000e+02   9.137713e-04 
  1.180000e+02   8.981118e-04 
  1.200000e+02   9.309340e-04 
  1.220000e+02   7.975302e-04 
  1.240000e+02   7.621073e-04 
  1.260000e+02   7.153782e-04 
  1.280000e+02   7.594608e-04 
  1.300000e+02   7.442047e-04 
  1.320000e+02   6.947731e-04 
  1.340000e+02   6.796190e-04 
  1.360000e+02   7.346087e-04 
  1.380000e+02   6.804088e-04 
  1.400000e+02   6.431409e-04 
  1.420000e+02   7.195181e-04 
  1.440000e+02   7.314731e-04 
  1.460000e+02   6.942042e-04 
  1.480000e+02   6.765472e-04 
  1.500000e+02   6.556795e-04 
  1.520000e+02   6.175310e-04 
  1.540000e+02   6.539450e-04 
  1.560000e+02   6.270646e-04 
  1.580000e+02   5.851089e-04 
  1.600000e+02   6.063895e-04 
  1.620000e+02   6.635196e-04 
  1.640000e+02   6.181340e-04 
  1.660000e+02   5.636969e-04 
  1.680000e+02   5.796544e-04 
  1.700000e+02   5.983266e-04 
  1.720000e+02   6.015163e-04 
  1.740000e+02   5.649378e-04 
  1.760000e+02   5.971843e-04 
  1.780000e+02   6.279056e-04 
  1.800000e+02   6.126629e-04 
  1.820000e+02   5.576147e-04 
  1.840000e+02   5.730249e-04 
  1.860000e+02   6.020878e-04 
  1.880000e+02   5.475337e-04 
  1.900000e+02   4.911398e-04 
  1.920000e+02   5.057350e-04 
  1.940000e+02   4.930095e-04 
  1.960000e+02   5.015591e-04 
  1.980000e+02   5.374859e-04 
  2.000000e+02   5.057123e-04 
  2.020000e+02   4.783584e-04 
  2.040000e+02   4.717163e-04 
  2.060000e+02   4.648814e-04 
  2.080000e+02   4.780612e-04 
  2.100000e+02   5.044282e-04 
  2.120000e+02   4.718114e-04 
  2.140000e+02   4.456126e-04 
  2.160000e+02   5.152753e-04 
  2.180000e+02   4.557293e-04 
  2.200000e+02   4.337167e-04 
  2.220000e+02   4.726794e-04 
  2.240000e+02   4.313654e-04 
  2.260000e+02   4.262504e-04 
  2.280000e+02   4.508669e-04 
  2.300000e+02   4.359124e-04 
  2.320000e+02   4.373748e-04 
  2.340000e+02   4.678429e-04 
  2.360000e+02   4.609810e-04 
  2.380000e+02   4.185360e-04 
  2.400000e+02   3.769546e-04 
  2.420000e+02   4.312260e-04 
  2.440000e+02   4.581648e-04 
  2.460000e+02   4.105991e-04 
  2.480000e+02   3.972778e-04 
  2.500000e+02   4.067401e-04 
  2.520000e+02   3.907082e-04 
  2.540000e+02   3.926212e-04 
  2.560000e+02   3.950777e-04 
  2.580000e+02   3.906853e-04 
  2.600000e+02   4.288311e-04 
  2.620000e+02   4.370456e-04 
  2.640000e+02   4.135002e-04 
  2.660000e+02   3.710854e-04 
  2.680000e+02   3.645507e-04 
  2.700000e+02   4.053652e-04 
  2.720000e+02   3.559317e-04 
  2.740000e+02   3.680974e-04 
  2.760000e+02   4.058665e-04 
  2.780000e+02   3.815995e-04 
  2.800000e+02   3.865563e-04 
  2.820000e+02   3.708480e-04 
  2.840000e+02   3.672310e-04 
  2.860000e+02   3.571143e-04 
  2.880000e+02   3.483683e-04 
  2.900000e+02   3.627444e-04 
  2.920000e+02   3.610594e-04 
  2.940000e+02   3.666364e-04 
  2.960000e+02   3.746778e-04 
  2.980000e+02   3.687957e-04 
  3.000000e+02   3.453879e-04 
  3.020000e+02   3.049418e-04 
  3.040000e+02   2.968757e-04 
  3.060000e+02   3.305956e-04 
  3.080000e+02   3.183363e-04 
  3.100000e+02   3.075197e-04 
  3.120000e+02   2.965699e-04 
  3.140000e+02   3.195313e-04 
  3.160000e+02   3.336061e-04 
  3.180000e+02   3.157539e-04 
  3.200000e+02   3.240811e-04 
  3.220000e+02   2.957513e-04 
  3.240000e+02   3.090860e-04 
  3.260000e+02   3.200066e-04 
  3.280000e+02   3.001211e-04 
  3.300000e+02   2.945326e-04 
  3.320000e+02   2.941541e-04 
  3.340000e+02   2.802346e-04 
  3.360000e+02   2.917294e-04 
  3.380000e+02   3.095912e-04 
  3.400000e+02   3.064385e-04 
  3.420000e+02   2.948531e-04 
  3.440000e+02   2.873133e-04 
  3.460000e+02   2.805143e-04 
  3.480000e+02   2.900253e-04 
  3.500000e+02   2.917668e-04 
  3.520000e+02   3.006347e-04 
  3.540000e+02   3.099342e-04 
  3.560000e+02   2.652668e-04 
  3.580000e+02   2.594932e-04 
  3.600000e+02   2.695922e-04 
  3.620000e+02   2.943918e-04 
  3.640000e+02   3.014872e-04 
  3.660000e+02   2.694713e-04 
  3.680000e+02   2.741065e-04 
  3.700000e+02   2.769137e-04 
  3.720000e+02   2.525378e-04 
  3.740000e+02   2.524189e-04 
  3.760000e+02   2.618297e-04 
  3.780000e+02   2.853664e-04 
  3.800000e+02   2.771798e-04 
  3.820000e+02   2.602414e-04 
  3.840000e+02   2.585915e-04 
  3.860000e+02   2.637783e-04 
  3.880000e+02   2.620434e-04 
  3.900000e+02   2.593839e-04 
  3.920000e+02   2.536926e-04 
  3.940000e+02   2.625264e-04 
  3.960000e+02   2.574928e-04 
  3.980000e+02   2.724731e-04 
  4.000000e+02   2.639054e-04 
  4.020000e+02   2.552501e-04 
  4.040000e+02   2.488174e-04 
  4.060000e+02   2.271414e-04 
  4.080000e+02   2.461605e-04 
  4.100000e+02   2.354767e-04 
  4.120000e+02   2.399224e-04 
  4.140000e+02   2.359804e-04 
  4.160000e+02   2.256029e-04 
  4.180000e+02   2.351711e-04 
  4.200000e+02   2.358114e-04 
  4.220000e+02   2.308626e-04 
  4.240000e+02   2.428388e-04 
  4.260000e+02   2.247868e-04 
  4.280000e+02   2.315543e-04 
  4.300000e+02   2.219433e-04 
  4.320000e+02   2.212898e-04 
  4.340000e+02   2.289918e-04 
  4.360000e+02   2.317778e-04 
  4.380000e+02   2.291211e-04 
  4.400000e+02   2.341366e-04 
  4.420000e+02   2.459238e-04 
  4.440000e+02   2.381174e-04 
  4.460000e+02   2.200651e-04 
  4.480000e+02   2.210983e-04 
  4.500000e+02   2.181739e-04 
  4.520000e+02   2.206707e-04 
  4.540000e+02   2.271942e-04 
  4.560000e+02   2.407978e-04 
  4.580000e+02   2.299276e-04 
  4.600000e+02   2.362470e-04 
  4.620000e+02   2.304680e-04 
  4.640000e+02   2.270555e-04 
  4.660000e+02   2.137982e-04 
  4.680000e+02   2.062322e-04 
  4.700000e+02   2.187326e-04 
  4.720000e+02   2.200996e-04 
  4.740000e+02   2.026502e-04 
  4.760000e+02   1.942961e-04 
  4.780000e+02   2.084226e-04 
  4.800000e+02   2.192262e-04 
  4.820000e+02   2.011774e-04 
  4.840000e+02   2.023835e-04 
  4.860000e+02   2.028240e-04 
  4.880000e+02   1.949778e-04 
  4.900000e+02   1.995808e-04 
  4.920000e+02   2.008420e-04 
  4.940000e+02   2.072527e-04 
  4.960000e+02   2.166692e-04 
  4.980000e+02   2.063799e-04 
  5.000000e+02   2.186373e-04 
  5.020000e+02   2.110884e-04 
  5.040000e+02   2.110580e-04 
  5.060000e+02   2.290790e-04 
  5.080000e+02   2.286401e-04 
  5.100000e+02   1.973202e-04 
  5.120000e+02   2.086372e-04 
  5.140000e+02   1.914068e-04 
  5.160000e+02   1.894896e-04 
  5.180000e+02   1.960643e-04 
  5.200000e+02   2.100539e-04 
  5.220000e+02   2.065394e-04 
  5.240000e+02   1.947678e-04 
  5.260000e+02   1.950989e-04 
  5.280000e+02   1.883373e-04 
  5.300000e+02   1.845204e-04 
  5.320000e+02   1.914679e-04 
  5.340000e+02   1.952083e-04 
  5.360000e+02   1.898247e-04 
  5.380000e+02   1.992566e-04 
  5.400000e+02   1.985532e-04 
  5.420000e+02   1.962984e-04 
  5.440000e+02   1.719964e-04 
  5.460000e+02   1.725820e-04 
  5.480000e+02   1.758835e-04 
  5.500000e+02   1.911735e-04 
  5.520000e+02   1.927052e-04 
  5.540000e+02   1.773625e-04 
  5.560000e+02   1.966390e-04 
  5.580000e+02   2.011908e-04 
  5.600000e+02   1.755220e-04 
  5.620000e+02   1.668866e-04 
  5.640000e+02   1.863433e-04 
  5.660000e+02   1.998045e-04 
  5.680000e+02   1.923567e-04 
  5.700000e+02   1.675701e-04 
  5.720000e+02   1.731760e-04 
  5.740000e+02   1.798255e-04 
  5.760000e+02   1.792574e-04 
  5.780000e+02   1.856215e-04 
  5.800000e+02   1.759721e-04 
  5.820000e+02   1.660816e-04 
  5.840000e+02   1.770172e-04 
  5.860000e+02   1.727818e-04 
  5.880000e+02   1.804142e-04 
  5.900000e+02   1.688144e-04 
  5.920000e+02   1.684509e-04 
  5.940000e+02   1.842063e-04 
  5.960000e+02   1.685458e-04 
  5.980000e+02   1.583145e-04 
  6.000000e+02   1.622951e-04 
  6.020000e+02   1.600191e-04 
  6.040000e+02   1.553393e-04 
  6.060000e+02   1.636106e-04 
  6.080000e+02   1.582299e-04 
  6.100000e+02   1.563486e-04 
  6.120000e+02   1.525738e-04 
  6.140000e+02   1.634745e-04 
  6.160000e+02   1.560947e-04 
  6.180000e+02   1.654725e-04 
  6.200000e+02   1.596655e-04 
  6.220000e+02   1.610506e-04 
  6.240000e+02   1.731008e-04 
  6.260000e+02   1.670773e-04 
  6.280000e+02   1.754785e-04 
  6.300000e+02   1.704756e-04 
  6.320000e+02   1.627524e-04 
  6.340000e+02   1.697267e-04 
  6.360000e+02   1.639609e-04 
  6.380000e+02   1.556545e-04 
  6.400000e+02   1.525292e-04 
  6.420000e+02   1.698191e-04 
  6.440000e+02   1.743649e-04 
  6.460000e+02   1.762737e-04 
  6.480000e+02   1.767006e-04 
  6.500000e+02   1.481047e-04 
  6.520000e+02   1.552271e-04 
  6.540000e+02   1.694188e-04 
  6.560000e+02   1.638205e-04 
  6.580000e+02   1.598590e-04 
  6.600000e+02   1.541472e-04 
  6.620000e+02   1.420255e-04 
  6.640000e+02   1.422113e-04 
  6.660000e+02   1.537077e-04 
  6.680000e+02   1.503588e-04 
  6.700000e+02   1.544030e-04 
  6.720000e+02   1.588514e-04 
  6.740000e+02   1.535448e-04 
  6.760000e+02   1.334780e-04 
  6.780000e+02   1.434160e-04 
  6.800000e+02   1.589789e-04 
  6.820000e+02   1.533376e-04 
  6.840000e+02   1.422615e-04 
  6.860000e+02   1.477934e-04 
  6.880000e+02   1.488369e-04 
  6.900000e+02   1.419555e-04 
  6.920000e+02   1.453516e-04 
  6.940000e+02   1.451541e-04 
  6.960000e+02   1.397513e-04 
  6.980000e+02   1.324171e-04 
  7.000000e+02   1.457866e-04 
  7.020000e+02   1.541882e-04 
  7.040000e+02   1.524525e-04 
  7.060000e+02   1.392534e-04 
  7.080000e+02   1.406909e-04 
  7.100000e+02   1.495348e-04 
  7.120000e+02   1.443304e-04 
  7.140000e+02   1.302543e-04 
  7.160000e+02   1.447363e-04 
  7.180000e+02   1.557266e-04 
  7.200000e+02   1.499723e-04 
  7.220000e+02   1.334274e-04 
  7.240000e+02   1.348042e-04 
  7.260000e+02   1.332288e-04 
  7.280000e+02   1.472159e-04 
  7.300000e+02   1.360054e-04 
  7.320000e+02   1.359483e-04 
  7.340000e+02   1.458505e-04 
  7.360000e+02   1.326686e-04 
  7.380000e+02   1.287513e-04 
  7.400000e+02   1.288635e-04 
  7.420000e+02   1.331750e-04 
  7.440000e+02   1.338322e-04 
  7.460000e+02   1.364364e-04 
  7.480000e+02   1.340206e-04 
  7.500000e+02   1.413234e-04 
  7.520000e+02   1.380366e-04 
  7.540000e+02   1.261610e-04 
  7.560000e+02   1.240761e-04 
  7.580000e+02   1.300961e-04 
  7.600000e+02   1.421086e-04 
  7.620000e+02   1.349815e-04 
  7.640000e+02   1.287070e-04 
  7.660000e+02   1.325784e-04 
  7.680000e+02   1.356796e-04 
  7.700000e+02   1.390329e-04 
  7.720000e+02   1.296901e-04 
  7.740000e+02   1.394787e-04 
  7.760000e+02   1.315437e-04 
  7.780000e+02   1.362575e-04 
  7.800000e+02   1.250382e-04 
  7.820000e+02   1.247107e-04 
  7.840000e+02   1.356819e-04 
  7.860000e+02   1.372900e-04 
  7.880000e+02   1.386184e-04 
  7.900000e+02   1.357913e-04 
  7.920000e+02   1.218166e-04 
  7.940000e+02   1.261437e-04 
  7.960000e+02   1.260491e-04 
  7.980000e+02   1.366818e-04 
  8.000000e+02   1.283708e-04 
  8.020000e+02   1.236691e-04 
  8.040000e+02   1.278320e-04 
  8.060000e+02   1.273497e-04 
  8.080000e+02   1.223978e-04 
  8.100000e+02   1.310915e-04 
  8.120000e+02   1.325051e-04 
  8.140000e+02   1.326254e-04 
  8.160000e+02   1.338291e-04 
  8.180000e+02   1.296567e-04 
  8.200000e+02   1.348463e-04 
  8.220000e+02   1.382074e-04 
  8.240000e+02   1.248894e-04 
  8.260000e+02   1.261593e-04 
  8.280000e+02   1.299392e-04 
  8.300000e+02   1.268201e-04 
  8.320000e+02   1.129640e-04 
  8.340000e+02   1.132065e-04 
  8.360000e+02   1.176633e-04 
  8.380000e+02   1.208594e-04 
  8.400000e+02   1.199592e-04 
  8.420000e+02   1.145440e-04 
  8.440000e+02   1.161423e-04 
  8.460000e+02   1.178427e-04 
  8.480000e+02   1.296552e-04 
  8.500000e+02   1.276327e-04 
  8.520000e+02   1.161563e-04 
  8.540000e+02   1.195820e-04 
  8.560000e+02   1.215031e-04 
  8.580000e+02   1.286373e-04 
  8.600000e+02   1.106981e-04 
  8.620000e+02   1.098418e-04 
  8.640000e+02   1.091843e-04 
  8.660000e+02   1.172338e-04 
  8.680000e+02   1.112369e-04 
  8.700000e+02   1.123502e-04 
  8.720000e+02   1.177382e-04 
  8.740000e+02   1.226100e-04 
  8.760000e+02   1.117829e-04 
  8.780000e+02   1.128948e-04 
  8.800000e+02   1.072784e-04 
  8.820000e+02   1.037940e-04 
  8.840000e+02   1.199223e-04 
  8.860000e+02   1.240832e-04 
  8.880000e+02   1.126115e-04 
  8.900000e+02   1.022807e-04 
  8.920000e+02   1.017555e-04 
  8.940000e+02   1.130147e-04 
  8.960000e+02   1.257904e-04 
  8.980000e+02   1.167482e-04 
  9.000000e+02   1.085923e-04 
  9.020000e+02   1.045387e-04 
  9.040000e+02   1.046784e-04 
  9.060000e+02   1.030920e-04 
  9.080000e+02   1.114007e-04 
  9.100000e+02   1.100383e-04 
  9.120000e+02   1.071752e-04 
  9.140000e+02   1.128774e-04 
  9.160000e+02   1.087279e-04 
  9.180000e+02   1.211444e-04 
  9.200000e+02   1.135924e-04 
  9.220000e+02   1.075212e-04 
  9.240000e+02   1.027062e-04 
  9.260000e+02   1.039825e-04 
  9.280000e+02   1.102136e-04 
  9.300000e+02   1.100696e-04 
  9.320000e+02   1.097417e-04 
  9.340000e+02   1.109351e-04 
  9.360000e+02   1.079080e-04 
  9.380000e+02   1.043024e-04 
  9.400000e+02   1.028720e-04 
  9.420000e+02   1.018541e-04 
  9.440000e+02   1.065944e-04 
  9.460000e+02   1.188148e-04 
  9.480000e+02   1.155100e-04 
  9.500000e+02   1.057290e-04 
  9.520000e+02   1.111017e-04 
  9.540000e+02   1.128948e-04 
  9.560000e+02   1.078828e-04 
  9.580000e+02   1.098836e-04 
  9.600000e+02   1.104718e-04 
  9.620000e+02   1.152172e-04 
  9.640000e+02   1.172202e-04 
  9.660000e+02   1.065761e-04 
  9.680000e+02   1.063450e-04 
  9.700000e+02   1.069473e-04 
  9.720000e+02   1.015494e-04 
  9.740000e+02   1.051302e-04 
  9.760000e+02   1.025474e-04 
  9.780000e+02   9.508424e-05 
  9.800000e+02   1.075582e-04 
  9.820000e+02   1.079900e-04 
  9.840000e+02   1.048804e-04 
  9.860000e+02   1.079079e-04 
  9.880000e+02   1.105862e-04 
  9.900000e+02   1.012271e-04 
  9.920000e+02   1.041467e-04 
  9.940000e+02   9.814205e-05 
  9.960000e+02   9.223862e-05 
  9.980000e+02   9.650393e-05 
  1.000000e+03   1.073040e-04 
  1.002000e+03   9.556038e-05 
  1.004000e+03   8.995426e-05 
  1.006000e+03   9.202764e-05 
  1.008000e+03   9.368663e-05 
  1.010000e+03   1.019913e-04 
  1.012000e+03   1.086358e-04 
  1.014000e+03   1.003818e-04 
  1.016000e+03   9.941261e-05 
  1.018000e+03   1.044992e-04 
  1.020000e+03   1.060993e-04 
  1.022000e+03   1.010043e-04 
  1.024000e+03   1.015874e-04 
  1.026000e+03   1.034666e-04 
  1.028000e+03   9.886930e-05 
  1.030000e+03   8.950823e-05 
  1.032000e+03   8.853494e-05 
  1.034000e+03   9.673125e-05 
  1.036000e+03   9.537370e-05 
  1.038000e+03   9.139224e-05 
  1.040000e+03   9.092480e-05 
  1.042000e+03   9.653687e-05 
  1.044000e+03   1.077486e-04 
  1.046000e+03   9.816646e-05 
  1.048000e+03   9.497887e-05 
  1.050000e+03   1.009524e-04 
  1.052000e+03   9.751591e-05 
  1.054000e+03   1.015306e-04 
  1.056000e+03   9.993920e-05 
  1.058000e+03   1.063157e-04 
  1.060000e+03   9.762095e-05 
  1.062000e+03   9.391138e-05 
  1.064000e+03   8.846772e-05 
  1.066000e+03   9.801918e-05 
  1.068000e+03   9.451596e-05 
  1.070000e+03   8.952119e-05 
  1.072000e+03   8.506052e-05 
  1.074000e+03   9.578276e-05 
  1.076000e+03   1.009723e-04 
  1.078000e+03   1.036174e-04 
  1.080000e+03   9.585351e-05 
  1.082000e+03   8.405314e-05 
  1.084000e+03   8.432928e-05 
  1.086000e+03   9.258197e-05 
  1.088000e+03   9.186949e-05 
  1.090000e+03   9.683429e-05 
  1.092000e+03   9.539264e-05 
  1.094000e+03   9.072941e-05 
  1.096000e+03   8.939913e-05 
  1.098000e+03   9.320906e-05 
  1.100000e+03   9.761291e-05 
  1.102000e+03   9.924367e-05 
  1.104000e+03   1.011649e-04 
  1.106000e+03   1.007417e-04 
  1.108000e+03   1.006041e-04 
  1.110000e+03   9.832169e-05 
  1.112000e+03   9.350157e-05 
  1.114000e+03   9.212022e-05 
  1.116000e+03   8.613186e-05 
  1.118000e+03   8.090166e-05 
  1.120000e+03   9.363197e-05 
  1.122000e+03   9.237339e-05 
  1.124000e+03   9.014882e-05 
  1.126000e+03   8.417088e-05 
  1.128000e+03   7.925459e-05 
  1.130000e+03   8.786152e-05 
  1.132000e+03   8.533910e-05 
  1.134000e+03   8.438619e-05 
  1.136000e+03   8.530980e-05 
  1.138000e+03   8.405338e-05 
  1.140000e+03   8.795268e-05 
  1.142000e+03   9.427631e-05 
  1.144000e+03   8.939768e-05 
  1.146000e+03   8.876170e-05 
  1.148000e+03   9.289089e-05 
  1.150000e+03   9.266124e-05 
  1.152000e+03   9.037597e-05 
  1.154000e+03   8.842936e-05 
  1.156000e+03   8.581529e-05 
  1.158000e+03   9.275592e-05 
  1.160000e+03   8.868741e-05 
  1.162000e+03   8.431711e-05 
  1.164000e+03   8.362113e-05 
  1.166000e+03   8.090735e-05 
  1.168000e+03   8.549922e-05 
  1.170000e+03   8.692301e-05 
  1.172000e+03   7.997514e-05 
  1.174000e+03   9.281050e-05 
  1.176000e+03   8.769520e-05 
  1.178000e+03   8.321804e-05 
  1.180000e+03   8.647292e-05 
  1.182000e+03   8.351523e-05 
  1.184000e+03   8.367600e-05 
  1.186000e+03   8.377695e-05 
  1.188000e+03   8.592231e-05 
  1.190000e+03   8.286568e-05 
  1.192000e+03   8.369008e-05 
  1.194000e+03   8.634980e-05 
  1.196000e+03   9.384855e-05 
  1.198000e+03   8.882678e-05 
  1.200000e+03   8.719000e-05 
  1.202000e+03   8.341206e-05 
  1.204000e+03   7.754940e-05 
  1.206000e+03   8.140955e-05 
  1.208000e+03   8.410875e-05 
  1.210000e+03   8.697816e-05 
  1.212000e+03   8.457749e-05 
  1.214000e+03   8.386822e-05 
  1.216000e+03   9.799119e-05 
  1.218000e+03   9.258713e-05 
  1.220000e+03   8.722744e-05 
  1.222000e+03   8.647846e-05 
  1.224000e+03   8.210199e-05 
  1.226000e+03   8.012914e-05 
  1.228000e+03   8.256218e-05 
  1.230000e+03   8.641266e-05 
  1.232000e+03   7.946660e-05 
  1.234000e+03   8.086558e-05 
  1.236000e+03   7.903311e-05 
  1.238000e+03   8.119925e-05 
  1.240000e+03   7.991352e-05 
  1.242000e+03   7.631820e-05 
  1.244000e+03   7.481824e-05 
  1.246000e+03   7.667458e-05 
  1.248000e+03   8.481328e-05 
  1.250000e+03   8.129688e-05 
  1.252000e+03   7.235780e-05 
  1.254000e+03   8.042387e-05 
  1.256000e+03   8.869411e-05 
  1.258000e+03   8.504204e-05 
  1.260000e+03   7.406386e-05 
  1.262000e+03   7.898076e-05 
  1.264000e+03   8.243586e-05 
  1.266000e+03   8.091519e-05 
  1.268000e+03   7.930424e-05 
  1.270000e+03   8.068109e-05 
  1.272000e+03   8.166284e-05 
  1.274000e+03   7.971732e-05 
  1.276000e+03   7.577566e-05 
  1.278000e+03   7.445658e-05 
  1.280000e+03   7.176240e-05 
  1.282000e+03   7.384998e-05 
  1.284000e+03   7.388223e-05 
  1.286000e+03   7.881258e-05 
  1.288000e+03   7.911136e-05 
  1.290000e+03   7.897118e-05 
  1.292000e+03   8.267047e-05 
  1.294000e+03   8.137762e-05 
  1.296000e+03   7.755702e-05 
  1.298000e+03   7.805639e-05 
  1.300000e+03   7.793434e-05 
  1.302000e+03   8.117486e-05 
  1.304000e+03   8.035060e-05 
  1.306000e+03   8.317841e-05 
  1.308000e+03   8.241888e-05 
  1.310000e+03   8.015805e-05 
  1.312000e+03   7.474349e-05 
  1.314000e+03   7.398690e-05 
  1.316000e+03   6.811757e-05 
  1.318000e+03   7.704747e-05 
  1.320000e+03   8.369613e-05 
  1.322000e+03   8.002605e-05 
  1.324000e+03   6.991301e-05 
  1.326000e+03   7.504140e-05 
  1.328000e+03   8.152107e-05 
  1.330000e+03   7.690622e-05 
  1.332000e+03   7.918354e-05 
  1.334000e+03   8.129433e-05 
  1.336000e+03   8.061864e-05 
  1.338000e+03   8.179521e-05 
  1.340000e+03   7.337955e-05 
  1.342000e+03   7.564898e-05 
  1.344000e+03   7.445655e-05 
  1.346000e+03   6.921739e-05 
  1.348000e+03   7.418600e-05 
  1.350000e+03   7.066508e-05 
  1.352000e+03   7.165682e-05 
  1.354000e+03   8.046260e-05 
  1.356000e+03   7.623558e-05 
  1.358000e+03   7.584285e-05 
  1.360000e+03   7.640092e-05 
  1.362000e+03   7.045387e-05 
  1.364000e+03   7.168468e-05 
  1.366000e+03   7.353489e-05 
  1.368000e+03   7.384069e-05 
  1.370000e+03   6.576067e-05 
  1.372000e+03   6.627356e-05 
  1.374000e+03   7.148568e-05 
  1.376000e+03   7.153300e-05 
  1.378000e+03   7.570859e-05 
  1.380000e+03   7.698783e-05 
  1.382000e+03   8.135245e-05 
  1.384000e+03   7.770349e-05 
  1.386000e+03   7.268136e-05 
  1.388000e+03   7.609244e-05 
  1.390000e+03   7.109863e-05 
  1.392000e+03   7.222697e-05 
  1.394000e+03   7.892362e-05 
  1.396000e+03   7.482811e-05 
  1.398000e+03   7.032504e-05 
  1.400000e+03   6.793479e-05 
  1.402000e+03   7.005002e-05 
  1.404000e+03   7.544306e-05 
  1.406000e+03   7.612801e-05 
  1.408000e+03   8.020104e-05 
  1.410000e+03   8.026024e-05 
  1.412000e+03   7.337889e-05 
  1.414000e+03   7.019674e-05 
  1.416000e+03   7.743845e-05 
  1.418000e+03   7.454850e-05 
  1.420000e+03   7.563744e-05 
  1.422000e+03   7.436088e-05 
  1.424000e+03   7.255812e-05 
  1.426000e+03   6.586542e-05 
  1.428000e+03   6.450634e-05 
  1.430000e+03   6.648568e-05 
  1.432000e+03   6.807164e-05 
  1.434000e+03   6.923372e-05 
  1.436000e+03   7.060304e-05 
  1.438000e+03   7.211269e-05 
  1.440000e+03   7.283688e-05 
  1.442000e+03   7.316760e-05 
  1.444000e+03   7.783272e-05 
  1.446000e+03   7.850057e-05 
  1.448000e+03   7.350823e-05 
  1.450000e+03   7.170050e-05 
  1.452000e+03   7.469688e-05 
  1.454000e+03   7.027618e-05 
  1.456000e+03   6.608907e-05 
  1.458000e+03   7.035123e-05 
  1.460000e+03   7.357584e-05 
  1.462000e+03   7.033091e-05 
  1.464000e+03   7.078728e-05 
  1.466000e+03   7.440806e-05 
  1.468000e+03   7.024641e-05 
  1.470000e+03   6.420466e-05 
  1.472000e+03   6.408009e-05 
  1.474000e+03   6.586903e-05 
  1.476000e+03   6.507697e-05 
  1.478000e+03   6.153784e-05 
  1.480000e+03   6.483882e-05 
  1.482000e+03   6.297752e-05 
  1.484000e+03   6.326936e-05 
  1.486000e+03   6.614302e-05 
  1.488000e+03   7.026392e-05 
  1.490000e+03   6.814320e-05 
  1.492000e+03   7.007032e-05 
  1.494000e+03   6.305469e-05 
  1.496000e+03   6.599835e-05 
  1.498000e+03   6.725212e-05 
  1.500000e+03   7.045382e-05 
  1.502000e+03   7.759035e-05 
  1.504000e+03   6.970229e-05 
  1.506000e+03   5.937061e-05 
  1.508000e+03   6.756974e-05 
  1.510000e+03   7.255001e-05 
  1.512000e+03   6.729052e-05 
  1.514000e+03   6.725558e-05 
  1.516000e+03   7.033932e-05 
  1.518000e+03   6.687267e-05 
  1.520000e+03   6.153261e-05 
  1.522000e+03   6.767408e-05 
  1.524000e+03   7.255859e-05 
  1.526000e+03   6.681485e-05 
  1.528000e+03   6.951205e-05 
  1.530000e+03   6.543237e-05 
  1.532000e+03   6.535627e-05 
  1.534000e+03   6.394924e-05 
  1.536000e+03   6.386867e-05 
  1.538000e+03   6.239383e-05 
  1.540000e+03   6.365008e-05 
  1.542000e+03   6.319745e-05 
  1.544000e+03   6.152529e-05 
  1.546000e+03   5.943039e-05 
  1.548000e+03   5.784203e-05 
  1.550000e+03   6.206267e-05 
  1.552000e+03   6.563183e-05 
  1.554000e+03   6.823707e-05 
  1.556000e+03   6.509536e-05 
  1.558000e+03   6.513697e-05 
  1.560000e+03   6.578173e-05 
  1.562000e+03   6.493260e-05 
  1.564000e+03   6.143931e-05 
  1.566000e+03   6.187632e-05 
  1.568000e+03   6.423091e-05 
  1.570000e+03   6.792015e-05 
  1.572000e+03   6.538869e-05 
  1.574000e+03   6.064946e-05 
  1.576000e+03   6.707658e-05 
  1.578000e+03   6.547065e-05 
  1.580000e+03   6.478820e-05 
  1.582000e+03   6.449224e-05 
  1.584000e+03   6.637326e-05 
  1.586000e+03   5.911327e-05 
  1.588000e+03   6.095374e-05 
  1.590000e+03   6.534535e-05 
  1.592000e+03   6.519137e-05 
  1.594000e+03   5.937547e-05 
  1.596000e+03   6.144866e-05 
  1.598000e+03   6.396636e-05 
  1.600000e+03   5.825143e-05 
