Input File: 20SN.78D
Measure Group: FFT
Measurement: FFT 1
Num of extracted Points: 401
Start Freq: -0 Hz
Span: 1.6 kHz
FFT Lines:  400 
Window: BMH
Averaging Mode: RMS
Averaging Type: Exp. / Cont.
Number of Avg:   57
Overload reject: Off

    X[Hz]      Vrms/Hz^(1/... 
  0.000000e+00   8.200895e-01 
  4.000000e+00   5.581103e-01 
  8.000000e+00   1.614870e-01 
  1.200000e+01   1.335796e-02 
  1.600000e+01   2.163661e-04 
  2.000000e+01   2.270725e-04 
  2.400000e+01   2.200058e-04 
  2.800000e+01   1.913339e-04 
  3.200000e+01   1.689538e-04 
  3.600000e+01   1.533801e-04 
  4.000000e+01   1.337264e-04 
  4.400000e+01   1.101413e-04 
  4.800000e+01   1.053989e-04 
  5.200000e+01   1.122391e-04 
  5.600000e+01   1.774949e-04 
  6.000000e+01   2.348311e-04 
  6.400000e+01   1.658164e-04 
  6.800000e+01   8.902982e-05 
  7.200000e+01   8.013839e-05 
  7.600000e+01   8.453512e-05 
  8.000000e+01   8.527352e-05 
  8.400000e+01   7.816862e-05 
  8.800000e+01   7.269326e-05 
  9.200000e+01   7.221680e-05 
  9.600000e+01   7.458842e-05 
  1.000000e+02   7.618070e-05 
  1.040000e+02   7.285379e-05 
  1.080000e+02   6.311514e-05 
  1.120000e+02   5.977264e-05 
  1.160000e+02   6.239187e-05 
  1.200000e+02   6.272541e-05 
  1.240000e+02   5.651638e-05 
  1.280000e+02   4.786360e-05 
  1.320000e+02   4.754081e-05 
  1.360000e+02   4.675217e-05 
  1.400000e+02   4.038374e-05 
  1.440000e+02   3.886631e-05 
  1.480000e+02   4.361359e-05 
  1.520000e+02   4.513241e-05 
  1.560000e+02   4.239769e-05 
  1.600000e+02   4.015450e-05 
  1.640000e+02   4.004289e-05 
  1.680000e+02   4.029785e-05 
  1.720000e+02   5.574039e-05 
  1.760000e+02   1.348144e-04 
  1.800000e+02   1.901493e-04 
  1.840000e+02   1.303441e-04 
  1.880000e+02   5.182497e-05 
  1.920000e+02   3.635282e-05 
  1.960000e+02   3.441724e-05 
  2.000000e+02   3.440188e-05 
  2.040000e+02   3.320750e-05 
  2.080000e+02   3.235751e-05 
  2.120000e+02   3.436784e-05 
  2.160000e+02   3.293079e-05 
  2.200000e+02   2.837312e-05 
  2.240000e+02   2.783873e-05 
  2.280000e+02   2.915118e-05 
  2.320000e+02   2.987692e-05 
  2.360000e+02   2.850929e-05 
  2.400000e+02   2.602852e-05 
  2.440000e+02   2.691925e-05 
  2.480000e+02   2.871058e-05 
  2.520000e+02   2.653854e-05 
  2.560000e+02   2.742268e-05 
  2.600000e+02   2.739644e-05 
  2.640000e+02   2.497411e-05 
  2.680000e+02   2.371746e-05 
  2.720000e+02   2.443723e-05 
  2.760000e+02   2.427182e-05 
  2.800000e+02   2.321543e-05 
  2.840000e+02   2.273786e-05 
  2.880000e+02   2.289631e-05 
  2.920000e+02   3.096800e-05 
  2.960000e+02   6.881906e-05 
  3.000000e+02   9.285651e-05 
  3.040000e+02   6.140758e-05 
  3.080000e+02   2.673172e-05 
  3.120000e+02   2.140156e-05 
  3.160000e+02   2.201537e-05 
  3.200000e+02   2.282972e-05 
  3.240000e+02   2.200796e-05 
  3.280000e+02   2.032971e-05 
  3.320000e+02   2.063229e-05 
  3.360000e+02   2.176618e-05 
  3.400000e+02   2.126216e-05 
  3.440000e+02   1.954734e-05 
  3.480000e+02   1.908545e-05 
  3.520000e+02   2.060490e-05 
  3.560000e+02   2.080465e-05 
  3.600000e+02   1.945608e-05 
  3.640000e+02   1.939694e-05 
  3.680000e+02   1.933369e-05 
  3.720000e+02   1.758272e-05 
  3.760000e+02   1.692933e-05 
  3.800000e+02   1.856882e-05 
  3.840000e+02   1.880034e-05 
  3.880000e+02   1.756193e-05 
  3.920000e+02   1.750988e-05 
  3.960000e+02   1.989968e-05 
  4.000000e+02   1.980742e-05 
  4.040000e+02   1.707241e-05 
  4.080000e+02   1.512840e-05 
  4.120000e+02   1.559590e-05 
  4.160000e+02   2.644706e-05 
  4.200000e+02   3.591792e-05 
  4.240000e+02   2.609164e-05 
  4.280000e+02   1.733902e-05 
  4.320000e+02   1.545810e-05 
  4.360000e+02   1.385978e-05 
  4.400000e+02   1.518440e-05 
  4.440000e+02   1.703419e-05 
  4.480000e+02   1.658692e-05 
  4.520000e+02   1.571006e-05 
  4.560000e+02   1.469125e-05 
  4.600000e+02   1.385142e-05 
  4.640000e+02   1.418873e-05 
  4.680000e+02   1.512540e-05 
  4.720000e+02   1.549348e-05 
  4.760000e+02   1.526900e-05 
  4.800000e+02   1.581769e-05 
  4.840000e+02   1.695774e-05 
  4.880000e+02   1.709471e-05 
  4.920000e+02   1.675919e-05 
  4.960000e+02   1.576150e-05 
  5.000000e+02   1.309101e-05 
  5.040000e+02   1.307630e-05 
  5.080000e+02   1.376281e-05 
  5.120000e+02   1.402360e-05 
  5.160000e+02   1.522018e-05 
  5.200000e+02   1.551973e-05 
  5.240000e+02   1.565945e-05 
  5.280000e+02   1.509488e-05 
  5.320000e+02   1.531893e-05 
  5.360000e+02   2.106839e-05 
  5.400000e+02   2.521940e-05 
  5.440000e+02   1.811945e-05 
  5.480000e+02   1.213938e-05 
  5.520000e+02   1.261118e-05 
  5.560000e+02   1.352956e-05 
  5.600000e+02   1.380166e-05 
  5.640000e+02   1.341560e-05 
  5.680000e+02   1.332966e-05 
  5.720000e+02   1.235514e-05 
  5.760000e+02   1.274087e-05 
  5.800000e+02   1.393533e-05 
  5.840000e+02   1.407140e-05 
  5.880000e+02   1.456125e-05 
  5.920000e+02   1.716791e-05 
  5.960000e+02   1.739358e-05 
  6.000000e+02   1.495794e-05 
  6.040000e+02   1.337853e-05 
  6.080000e+02   1.256174e-05 
  6.120000e+02   1.186817e-05 
  6.160000e+02   1.300620e-05 
  6.200000e+02   1.371409e-05 
  6.240000e+02   1.321387e-05 
  6.280000e+02   1.320819e-05 
  6.320000e+02   1.270742e-05 
  6.360000e+02   1.242157e-05 
  6.400000e+02   1.253028e-05 
  6.440000e+02   1.214752e-05 
  6.480000e+02   1.261445e-05 
  6.520000e+02   1.472461e-05 
  6.560000e+02   2.093754e-05 
  6.600000e+02   2.495506e-05 
  6.640000e+02   1.889901e-05 
  6.680000e+02   1.333945e-05 
  6.720000e+02   1.093124e-05 
  6.760000e+02   1.048975e-05 
  6.800000e+02   1.029623e-05 
  6.840000e+02   1.128480e-05 
  6.880000e+02   1.202471e-05 
  6.920000e+02   1.084973e-05 
  6.960000e+02   1.082009e-05 
  7.000000e+02   1.206175e-05 
  7.040000e+02   1.137570e-05 
  7.080000e+02   1.126038e-05 
  7.120000e+02   1.177833e-05 
  7.160000e+02   1.126798e-05 
  7.200000e+02   1.112253e-05 
  7.240000e+02   1.158578e-05 
  7.280000e+02   1.235752e-05 
  7.320000e+02   1.218785e-05 
  7.360000e+02   1.080798e-05 
  7.400000e+02   1.141749e-05 
  7.440000e+02   1.164944e-05 
  7.480000e+02   1.117346e-05 
  7.520000e+02   1.130259e-05 
  7.560000e+02   1.142776e-05 
  7.600000e+02   1.195086e-05 
  7.640000e+02   1.267125e-05 
  7.680000e+02   1.265290e-05 
  7.720000e+02   1.277620e-05 
  7.760000e+02   1.489460e-05 
  7.800000e+02   1.579163e-05 
  7.840000e+02   1.262112e-05 
  7.880000e+02   1.224706e-05 
  7.920000e+02   1.381086e-05 
  7.960000e+02   1.373285e-05 
  8.000000e+02   1.178880e-05 
  8.040000e+02   1.136389e-05 
  8.080000e+02   1.219632e-05 
  8.120000e+02   1.182783e-05 
  8.160000e+02   1.025236e-05 
  8.200000e+02   9.284983e-06 
  8.240000e+02   9.637778e-06 
  8.280000e+02   1.099115e-05 
  8.320000e+02   1.186766e-05 
  8.360000e+02   1.136496e-05 
  8.400000e+02   1.022766e-05 
  8.440000e+02   9.951882e-06 
  8.480000e+02   1.024677e-05 
  8.520000e+02   1.071562e-05 
  8.560000e+02   1.106717e-05 
  8.600000e+02   1.130356e-05 
  8.640000e+02   1.071284e-05 
  8.680000e+02   1.049445e-05 
  8.720000e+02   1.144489e-05 
  8.760000e+02   1.177115e-05 
  8.800000e+02   1.115250e-05 
  8.840000e+02   1.054224e-05 
  8.880000e+02   9.897647e-06 
  8.920000e+02   1.003396e-05 
  8.960000e+02   1.206706e-05 
  9.000000e+02   1.350930e-05 
  9.040000e+02   1.152106e-05 
  9.080000e+02   9.728407e-06 
  9.120000e+02   9.620411e-06 
  9.160000e+02   1.116702e-05 
  9.200000e+02   1.143032e-05 
  9.240000e+02   1.103664e-05 
  9.280000e+02   1.089513e-05 
  9.320000e+02   1.036347e-05 
  9.360000e+02   9.581007e-06 
  9.400000e+02   9.820331e-06 
  9.440000e+02   1.031279e-05 
  9.480000e+02   1.050442e-05 
  9.520000e+02   1.092178e-05 
  9.560000e+02   1.110382e-05 
  9.600000e+02   1.075590e-05 
  9.640000e+02   1.041706e-05 
  9.680000e+02   1.021664e-05 
  9.720000e+02   1.042850e-05 
  9.760000e+02   1.043464e-05 
  9.800000e+02   9.564023e-06 
  9.840000e+02   9.483454e-06 
  9.880000e+02   1.064358e-05 
  9.920000e+02   1.073218e-05 
  9.960000e+02   1.141869e-05 
  1.000000e+03   1.053578e-05 
  1.004000e+03   9.476485e-06 
  1.008000e+03   9.766596e-06 
  1.012000e+03   9.361429e-06 
  1.016000e+03   1.074540e-05 
  1.020000e+03   1.193346e-05 
  1.024000e+03   1.067457e-05 
  1.028000e+03   1.003998e-05 
  1.032000e+03   1.018666e-05 
  1.036000e+03   9.718799e-06 
  1.040000e+03   9.344372e-06 
  1.044000e+03   9.522420e-06 
  1.048000e+03   9.907976e-06 
  1.052000e+03   9.199240e-06 
  1.056000e+03   9.054144e-06 
  1.060000e+03   1.006167e-05 
  1.064000e+03   1.123045e-05 
  1.068000e+03   1.115167e-05 
  1.072000e+03   1.110382e-05 
  1.076000e+03   1.128986e-05 
  1.080000e+03   1.076904e-05 
  1.084000e+03   1.032724e-05 
  1.088000e+03   9.327297e-06 
  1.092000e+03   8.513278e-06 
  1.096000e+03   8.930645e-06 
  1.100000e+03   9.646581e-06 
  1.104000e+03   9.655226e-06 
  1.108000e+03   8.844384e-06 
  1.112000e+03   8.583354e-06 
  1.116000e+03   9.347785e-06 
  1.120000e+03   9.598842e-06 
  1.124000e+03   9.292742e-06 
  1.128000e+03   9.650182e-06 
  1.132000e+03   9.780051e-06 
  1.136000e+03   9.394343e-06 
  1.140000e+03   1.062965e-05 
  1.144000e+03   1.116615e-05 
  1.148000e+03   1.040505e-05 
  1.152000e+03   9.970677e-06 
  1.156000e+03   1.114100e-05 
  1.160000e+03   1.133779e-05 
  1.164000e+03   1.027541e-05 
  1.168000e+03   1.003178e-05 
  1.172000e+03   1.004742e-05 
  1.176000e+03   1.029967e-05 
  1.180000e+03   9.626508e-06 
  1.184000e+03   1.043303e-05 
  1.188000e+03   1.104585e-05 
  1.192000e+03   1.130255e-05 
  1.196000e+03   1.177132e-05 
  1.200000e+03   1.086535e-05 
  1.204000e+03   1.000206e-05 
  1.208000e+03   9.399816e-06 
  1.212000e+03   9.180406e-06 
  1.216000e+03   9.256160e-06 
  1.220000e+03   8.934674e-06 
  1.224000e+03   8.939908e-06 
  1.228000e+03   9.257358e-06 
  1.232000e+03   9.568812e-06 
  1.236000e+03   9.941221e-06 
  1.240000e+03   9.726119e-06 
  1.244000e+03   9.676311e-06 
  1.248000e+03   1.003063e-05 
  1.252000e+03   1.096595e-05 
  1.256000e+03   1.189057e-05 
  1.260000e+03   1.212560e-05 
  1.264000e+03   1.118302e-05 
  1.268000e+03   9.956749e-06 
  1.272000e+03   9.691487e-06 
  1.276000e+03   9.842047e-06 
  1.280000e+03   9.621690e-06 
  1.284000e+03   9.046425e-06 
  1.288000e+03   9.110285e-06 
  1.292000e+03   9.506895e-06 
  1.296000e+03   9.141442e-06 
  1.300000e+03   9.154353e-06 
  1.304000e+03   1.002217e-05 
  1.308000e+03   1.004338e-05 
  1.312000e+03   9.608288e-06 
  1.316000e+03   9.798918e-06 
  1.320000e+03   9.852898e-06 
  1.324000e+03   9.417471e-06 
  1.328000e+03   8.898686e-06 
  1.332000e+03   8.838151e-06 
  1.336000e+03   8.991862e-06 
  1.340000e+03   8.960199e-06 
  1.344000e+03   8.824399e-06 
  1.348000e+03   9.444591e-06 
  1.352000e+03   9.809934e-06 
  1.356000e+03   9.337477e-06 
  1.360000e+03   9.263052e-06 
  1.364000e+03   9.162492e-06 
  1.368000e+03   9.111289e-06 
  1.372000e+03   9.702804e-06 
  1.376000e+03   1.059253e-05 
  1.380000e+03   1.154017e-05 
  1.384000e+03   1.083535e-05 
  1.388000e+03   1.089267e-05 
  1.392000e+03   1.122213e-05 
  1.396000e+03   1.115709e-05 
  1.400000e+03   1.058600e-05 
  1.404000e+03   9.873405e-06 
  1.408000e+03   9.155996e-06 
  1.412000e+03   9.130387e-06 
  1.416000e+03   9.328060e-06 
  1.420000e+03   9.197815e-06 
  1.424000e+03   9.476339e-06 
  1.428000e+03   9.268935e-06 
  1.432000e+03   8.868826e-06 
  1.436000e+03   9.074993e-06 
  1.440000e+03   8.650895e-06 
  1.444000e+03   7.879771e-06 
  1.448000e+03   7.958404e-06 
  1.452000e+03   8.439718e-06 
  1.456000e+03   9.109761e-06 
  1.460000e+03   9.663231e-06 
  1.464000e+03   8.905637e-06 
  1.468000e+03   8.649241e-06 
  1.472000e+03   8.785784e-06 
  1.476000e+03   8.236213e-06 
  1.480000e+03   8.601400e-06 
  1.484000e+03   9.328667e-06 
  1.488000e+03   9.440007e-06 
  1.492000e+03   8.907113e-06 
  1.496000e+03   8.289860e-06 
  1.500000e+03   7.952794e-06 
  1.504000e+03   8.712547e-06 
  1.508000e+03   1.026035e-05 
  1.512000e+03   9.843970e-06 
  1.516000e+03   9.341056e-06 
  1.520000e+03   9.340230e-06 
  1.524000e+03   8.999528e-06 
  1.528000e+03   9.317231e-06 
  1.532000e+03   9.055451e-06 
  1.536000e+03   8.354099e-06 
  1.540000e+03   7.702228e-06 
  1.544000e+03   7.655274e-06 
  1.548000e+03   8.843126e-06 
  1.552000e+03   9.518313e-06 
  1.556000e+03   9.737387e-06 
  1.560000e+03   9.908337e-06 
  1.564000e+03   9.781596e-06 
  1.568000e+03   9.825425e-06 
  1.572000e+03   9.346717e-06 
  1.576000e+03   9.018002e-06 
  1.580000e+03   8.943177e-06 
  1.584000e+03   8.565798e-06 
  1.588000e+03   9.157002e-06 
  1.592000e+03   1.016699e-05 
  1.596000e+03   9.686129e-06 
  1.600000e+03   9.254076e-06 
