Input File: 20SN.78D
Measure Group: FFT
Measurement: FFT 1
Num of extracted Points: 801
Start Freq: -0 Hz
Span: 1.6 kHz
FFT Lines:  800 
Window: Hanning
Averaging Mode: RMS
Averaging Type: Exp. / Cont.
Number of Avg:   30
Overload reject: On

    X[Hz]      Vrms/Hz^(1/... 
  0.000000e+00   2.105494e+00 
  2.000000e+00   1.052990e+00 
  4.000000e+00   3.366169e-03 
  6.000000e+00   2.953395e-03 
  8.000000e+00   2.941128e-03 
  1.000000e+01   2.583693e-03 
  1.200000e+01   2.324087e-03 
  1.400000e+01   2.301345e-03 
  1.600000e+01   2.355560e-03 
  1.800000e+01   2.280554e-03 
  2.000000e+01   2.081026e-03 
  2.200000e+01   2.056107e-03 
  2.400000e+01   1.964551e-03 
  2.600000e+01   1.883959e-03 
  2.800000e+01   1.573771e-03 
  3.000000e+01   1.432712e-03 
  3.200000e+01   1.750986e-03 
  3.400000e+01   1.823957e-03 
  3.600000e+01   1.624998e-03 
  3.800000e+01   1.380512e-03 
  4.000000e+01   1.418123e-03 
  4.200000e+01   1.353166e-03 
  4.400000e+01   1.272957e-03 
  4.600000e+01   1.347814e-03 
  4.800000e+01   1.494017e-03 
  5.000000e+01   1.307437e-03 
  5.200000e+01   1.115083e-03 
  5.400000e+01   9.962725e-04 
  5.600000e+01   1.122546e-03 
  5.800000e+01   1.015995e-03 
  6.000000e+01   1.013800e-03 
  6.200000e+01   9.615095e-04 
  6.400000e+01   9.595565e-04 
  6.600000e+01   9.876156e-04 
  6.800000e+01   9.004227e-04 
  7.000000e+01   1.013101e-03 
  7.200000e+01   8.847071e-04 
  7.400000e+01   9.019230e-04 
  7.600000e+01   9.574406e-04 
  7.800000e+01   8.273358e-04 
  8.000000e+01   7.464163e-04 
  8.200000e+01   8.485995e-04 
  8.400000e+01   7.146385e-04 
  8.600000e+01   6.856943e-04 
  8.800000e+01   7.081461e-04 
  9.000000e+01   6.943665e-04 
  9.200000e+01   7.417338e-04 
  9.400000e+01   6.976397e-04 
  9.600000e+01   6.600347e-04 
  9.800000e+01   6.882812e-04 
  1.000000e+02   6.796588e-04 
  1.020000e+02   5.322039e-04 
  1.040000e+02   6.734988e-04 
  1.060000e+02   7.771908e-04 
  1.080000e+02   7.701270e-04 
  1.100000e+02   6.647632e-04 
  1.120000e+02   6.505789e-04 
  1.140000e+02   5.938767e-04 
  1.160000e+02   5.723607e-04 
  1.180000e+02   5.284376e-04 
  1.200000e+02   5.038640e-04 
  1.220000e+02   5.417795e-04 
  1.240000e+02   5.375106e-04 
  1.260000e+02   4.627377e-04 
  1.280000e+02   5.588708e-04 
  1.300000e+02   5.307259e-04 
  1.320000e+02   4.842446e-04 
  1.340000e+02   5.157731e-04 
  1.360000e+02   5.117144e-04 
  1.380000e+02   4.903945e-04 
  1.400000e+02   4.239953e-04 
  1.420000e+02   4.435062e-04 
  1.440000e+02   4.685297e-04 
  1.460000e+02   4.860830e-04 
  1.480000e+02   4.380700e-04 
  1.500000e+02   3.678332e-04 
  1.520000e+02   4.078140e-04 
  1.540000e+02   4.815923e-04 
  1.560000e+02   5.002692e-04 
  1.580000e+02   4.964952e-04 
  1.600000e+02   4.102454e-04 
  1.620000e+02   4.149215e-04 
  1.640000e+02   4.192626e-04 
  1.660000e+02   4.032179e-04 
  1.680000e+02   3.835250e-04 
  1.700000e+02   3.678613e-04 
  1.720000e+02   3.766053e-04 
  1.740000e+02   4.235272e-04 
  1.760000e+02   3.786268e-04 
  1.780000e+02   3.938252e-04 
  1.800000e+02   4.166605e-04 
  1.820000e+02   4.064362e-04 
  1.840000e+02   3.885487e-04 
  1.860000e+02   3.989021e-04 
  1.880000e+02   3.745841e-04 
  1.900000e+02   4.211711e-04 
  1.920000e+02   3.653168e-04 
  1.940000e+02   3.460840e-04 
  1.960000e+02   3.114425e-04 
  1.980000e+02   3.742557e-04 
  2.000000e+02   3.494581e-04 
  2.020000e+02   3.540048e-04 
  2.040000e+02   3.481742e-04 
  2.060000e+02   2.962955e-04 
  2.080000e+02   3.533902e-04 
  2.100000e+02   3.539441e-04 
  2.120000e+02   2.969634e-04 
  2.140000e+02   2.996938e-04 
  2.160000e+02   3.086733e-04 
  2.180000e+02   3.295330e-04 
  2.200000e+02   3.477688e-04 
  2.220000e+02   3.318039e-04 
  2.240000e+02   2.940510e-04 
  2.260000e+02   2.663998e-04 
  2.280000e+02   3.001520e-04 
  2.300000e+02   3.039617e-04 
  2.320000e+02   3.401089e-04 
  2.340000e+02   3.427858e-04 
  2.360000e+02   3.246502e-04 
  2.380000e+02   2.755433e-04 
  2.400000e+02   2.574681e-04 
  2.420000e+02   2.514468e-04 
  2.440000e+02   2.418327e-04 
  2.460000e+02   2.513705e-04 
  2.480000e+02   2.906574e-04 
  2.500000e+02   2.457365e-04 
  2.520000e+02   2.386622e-04 
  2.540000e+02   2.605882e-04 
  2.560000e+02   2.457701e-04 
  2.580000e+02   2.416813e-04 
  2.600000e+02   2.365770e-04 
  2.620000e+02   2.544944e-04 
  2.640000e+02   2.810468e-04 
  2.660000e+02   2.514156e-04 
  2.680000e+02   2.799532e-04 
  2.700000e+02   2.745247e-04 
  2.720000e+02   2.759458e-04 
  2.740000e+02   2.970390e-04 
  2.760000e+02   2.460791e-04 
  2.780000e+02   2.827057e-04 
  2.800000e+02   2.812644e-04 
  2.820000e+02   2.321007e-04 
  2.840000e+02   2.302702e-04 
  2.860000e+02   2.281522e-04 
  2.880000e+02   2.209429e-04 
  2.900000e+02   2.129471e-04 
  2.920000e+02   2.266193e-04 
  2.940000e+02   1.930433e-04 
  2.960000e+02   1.993077e-04 
  2.980000e+02   2.398072e-04 
  3.000000e+02   2.392691e-04 
  3.020000e+02   2.455956e-04 
  3.040000e+02   2.250957e-04 
  3.060000e+02   2.066613e-04 
  3.080000e+02   2.196126e-04 
  3.100000e+02   2.089170e-04 
  3.120000e+02   2.294123e-04 
  3.140000e+02   2.526019e-04 
  3.160000e+02   2.373039e-04 
  3.180000e+02   2.458120e-04 
  3.200000e+02   2.386639e-04 
  3.220000e+02   2.278243e-04 
  3.240000e+02   2.145718e-04 
  3.260000e+02   1.677691e-04 
  3.280000e+02   2.215276e-04 
  3.300000e+02   2.091499e-04 
  3.320000e+02   1.777822e-04 
  3.340000e+02   1.958826e-04 
  3.360000e+02   2.048119e-04 
  3.380000e+02   2.088086e-04 
  3.400000e+02   2.397230e-04 
  3.420000e+02   2.336942e-04 
  3.440000e+02   2.227251e-04 
  3.460000e+02   2.085494e-04 
  3.480000e+02   1.988654e-04 
  3.500000e+02   1.717876e-04 
  3.520000e+02   1.894107e-04 
  3.540000e+02   2.016527e-04 
  3.560000e+02   1.859724e-04 
  3.580000e+02   1.642436e-04 
  3.600000e+02   1.664586e-04 
  3.620000e+02   1.882836e-04 
  3.640000e+02   2.258143e-04 
  3.660000e+02   1.941745e-04 
  3.680000e+02   1.849790e-04 
  3.700000e+02   2.002995e-04 
  3.720000e+02   2.124625e-04 
  3.740000e+02   1.782794e-04 
  3.760000e+02   1.770983e-04 
  3.780000e+02   2.070925e-04 
  3.800000e+02   2.034503e-04 
  3.820000e+02   1.863657e-04 
  3.840000e+02   1.847145e-04 
  3.860000e+02   1.944188e-04 
  3.880000e+02   1.980804e-04 
  3.900000e+02   1.769491e-04 
  3.920000e+02   1.997589e-04 
  3.940000e+02   1.987618e-04 
  3.960000e+02   1.700351e-04 
  3.980000e+02   1.511988e-04 
  4.000000e+02   1.531760e-04 
  4.020000e+02   1.417603e-04 
  4.040000e+02   1.609251e-04 
  4.060000e+02   1.818163e-04 
  4.080000e+02   1.531632e-04 
  4.100000e+02   1.474269e-04 
  4.120000e+02   1.861450e-04 
  4.140000e+02   1.751259e-04 
  4.160000e+02   1.549674e-04 
  4.180000e+02   1.730170e-04 
  4.200000e+02   1.768091e-04 
  4.220000e+02   1.615507e-04 
  4.240000e+02   1.664931e-04 
  4.260000e+02   1.593797e-04 
  4.280000e+02   1.588441e-04 
  4.300000e+02   1.371541e-04 
  4.320000e+02   1.476309e-04 
  4.340000e+02   1.665925e-04 
  4.360000e+02   1.632167e-04 
  4.380000e+02   1.622608e-04 
  4.400000e+02   1.409838e-04 
  4.420000e+02   1.452092e-04 
  4.440000e+02   1.499386e-04 
  4.460000e+02   1.410869e-04 
  4.480000e+02   1.518027e-04 
  4.500000e+02   1.592161e-04 
  4.520000e+02   1.636632e-04 
  4.540000e+02   1.663369e-04 
  4.560000e+02   1.373068e-04 
  4.580000e+02   1.701759e-04 
  4.600000e+02   1.674894e-04 
  4.620000e+02   1.577026e-04 
  4.640000e+02   1.639492e-04 
  4.660000e+02   1.538333e-04 
  4.680000e+02   1.474552e-04 
  4.700000e+02   1.344231e-04 
  4.720000e+02   1.216272e-04 
  4.740000e+02   1.448499e-04 
  4.760000e+02   1.673062e-04 
  4.780000e+02   1.637625e-04 
  4.800000e+02   1.485831e-04 
  4.820000e+02   1.491732e-04 
  4.840000e+02   1.418460e-04 
  4.860000e+02   1.327130e-04 
  4.880000e+02   1.391518e-04 
  4.900000e+02   1.336884e-04 
  4.920000e+02   1.369349e-04 
  4.940000e+02   1.241035e-04 
  4.960000e+02   1.409645e-04 
  4.980000e+02   1.431809e-04 
  5.000000e+02   1.239371e-04 
  5.020000e+02   1.470815e-04 
  5.040000e+02   1.516379e-04 
  5.060000e+02   1.425606e-04 
  5.080000e+02   1.427714e-04 
  5.100000e+02   1.563357e-04 
  5.120000e+02   1.548320e-04 
  5.140000e+02   1.269694e-04 
  5.160000e+02   1.160105e-04 
  5.180000e+02   1.263343e-04 
  5.200000e+02   1.233974e-04 
  5.220000e+02   1.297856e-04 
  5.240000e+02   1.205457e-04 
  5.260000e+02   1.337098e-04 
  5.280000e+02   1.337623e-04 
  5.300000e+02   1.218353e-04 
  5.320000e+02   1.279880e-04 
  5.340000e+02   1.370143e-04 
  5.360000e+02   1.222107e-04 
  5.380000e+02   1.284643e-04 
  5.400000e+02   1.298963e-04 
  5.420000e+02   1.439692e-04 
  5.440000e+02   1.271090e-04 
  5.460000e+02   1.267437e-04 
  5.480000e+02   1.249722e-04 
  5.500000e+02   1.319178e-04 
  5.520000e+02   1.267453e-04 
  5.540000e+02   1.284881e-04 
  5.560000e+02   1.149135e-04 
  5.580000e+02   1.051807e-04 
  5.600000e+02   1.033484e-04 
  5.620000e+02   1.167582e-04 
  5.640000e+02   1.345018e-04 
  5.660000e+02   1.182366e-04 
  5.680000e+02   1.142964e-04 
  5.700000e+02   1.060513e-04 
  5.720000e+02   1.187351e-04 
  5.740000e+02   1.201286e-04 
  5.760000e+02   1.267960e-04 
  5.780000e+02   1.108230e-04 
  5.800000e+02   1.223497e-04 
  5.820000e+02   1.246843e-04 
  5.840000e+02   1.280678e-04 
  5.860000e+02   1.314926e-04 
  5.880000e+02   1.070554e-04 
  5.900000e+02   1.085097e-04 
  5.920000e+02   1.129696e-04 
  5.940000e+02   1.171602e-04 
  5.960000e+02   1.037406e-04 
  5.980000e+02   1.168358e-04 
  6.000000e+02   1.261030e-04 
  6.020000e+02   1.178170e-04 
  6.040000e+02   1.195628e-04 
  6.060000e+02   1.334147e-04 
  6.080000e+02   1.130940e-04 
  6.100000e+02   1.186387e-04 
  6.120000e+02   1.096166e-04 
  6.140000e+02   1.240234e-04 
  6.160000e+02   1.100233e-04 
  6.180000e+02   1.065604e-04 
  6.200000e+02   1.005229e-04 
  6.220000e+02   1.126235e-04 
  6.240000e+02   1.009239e-04 
  6.260000e+02   9.649611e-05 
  6.280000e+02   1.112736e-04 
  6.300000e+02   1.197602e-04 
  6.320000e+02   1.205167e-04 
  6.340000e+02   1.195489e-04 
  6.360000e+02   1.254970e-04 
  6.380000e+02   1.164660e-04 
  6.400000e+02   1.002174e-04 
  6.420000e+02   1.022417e-04 
  6.440000e+02   1.055909e-04 
  6.460000e+02   1.142256e-04 
  6.480000e+02   1.081013e-04 
  6.500000e+02   1.166645e-04 
  6.520000e+02   1.149432e-04 
  6.540000e+02   1.166298e-04 
  6.560000e+02   9.474535e-05 
  6.580000e+02   1.043001e-04 
  6.600000e+02   1.092997e-04 
  6.620000e+02   1.008778e-04 
  6.640000e+02   8.969283e-05 
  6.660000e+02   9.962271e-05 
  6.680000e+02   9.384615e-05 
  6.700000e+02   9.339768e-05 
  6.720000e+02   8.860244e-05 
  6.740000e+02   9.660269e-05 
  6.760000e+02   8.875864e-05 
  6.780000e+02   8.014408e-05 
  6.800000e+02   8.670964e-05 
  6.820000e+02   8.676310e-05 
  6.840000e+02   9.008434e-05 
  6.860000e+02   9.902388e-05 
  6.880000e+02   1.020578e-04 
  6.900000e+02   1.054562e-04 
  6.920000e+02   8.650783e-05 
  6.940000e+02   9.760064e-05 
  6.960000e+02   1.001894e-04 
  6.980000e+02   1.035844e-04 
  7.000000e+02   1.006601e-04 
  7.020000e+02   1.012900e-04 
  7.040000e+02   9.934695e-05 
  7.060000e+02   1.095889e-04 
  7.080000e+02   9.874839e-05 
  7.100000e+02   9.455738e-05 
  7.120000e+02   8.637935e-05 
  7.140000e+02   8.113628e-05 
  7.160000e+02   9.073574e-05 
  7.180000e+02   8.612850e-05 
  7.200000e+02   9.236850e-05 
  7.220000e+02   8.276670e-05 
  7.240000e+02   8.820971e-05 
  7.260000e+02   7.963728e-05 
  7.280000e+02   7.662915e-05 
  7.300000e+02   8.163856e-05 
  7.320000e+02   9.343035e-05 
  7.340000e+02   1.083863e-04 
  7.360000e+02   1.040228e-04 
  7.380000e+02   9.409208e-05 
  7.400000e+02   8.887809e-05 
  7.420000e+02   9.894832e-05 
  7.440000e+02   1.054567e-04 
  7.460000e+02   1.036879e-04 
  7.480000e+02   8.833928e-05 
  7.500000e+02   8.874527e-05 
  7.520000e+02   1.045618e-04 
  7.540000e+02   8.847725e-05 
  7.560000e+02   7.727150e-05 
  7.580000e+02   8.336026e-05 
  7.600000e+02   8.957708e-05 
  7.620000e+02   9.431211e-05 
  7.640000e+02   9.556417e-05 
  7.660000e+02   9.939419e-05 
  7.680000e+02   9.596386e-05 
  7.700000e+02   9.188085e-05 
  7.720000e+02   8.015107e-05 
  7.740000e+02   8.828793e-05 
  7.760000e+02   9.425269e-05 
  7.780000e+02   9.597839e-05 
  7.800000e+02   9.418845e-05 
  7.820000e+02   7.851345e-05 
  7.840000e+02   7.357847e-05 
  7.860000e+02   9.020663e-05 
  7.880000e+02   9.809445e-05 
  7.900000e+02   8.726419e-05 
  7.920000e+02   8.232709e-05 
  7.940000e+02   7.922220e-05 
  7.960000e+02   8.506389e-05 
  7.980000e+02   8.729260e-05 
  8.000000e+02   8.824593e-05 
  8.020000e+02   9.103328e-05 
  8.040000e+02   8.747344e-05 
  8.060000e+02   9.492451e-05 
  8.080000e+02   1.013810e-04 
  8.100000e+02   8.971120e-05 
  8.120000e+02   9.263840e-05 
  8.140000e+02   9.220019e-05 
  8.160000e+02   7.873429e-05 
  8.180000e+02   8.265206e-05 
  8.200000e+02   9.392759e-05 
  8.220000e+02   9.171348e-05 
  8.240000e+02   8.436800e-05 
  8.260000e+02   8.550265e-05 
  8.280000e+02   8.998143e-05 
  8.300000e+02   8.229411e-05 
  8.320000e+02   7.656473e-05 
  8.340000e+02   8.294480e-05 
  8.360000e+02   8.529255e-05 
  8.380000e+02   7.474254e-05 
  8.400000e+02   8.097207e-05 
  8.420000e+02   9.659464e-05 
  8.440000e+02   9.455893e-05 
  8.460000e+02   8.761716e-05 
  8.480000e+02   7.888498e-05 
  8.500000e+02   7.596194e-05 
  8.520000e+02   7.567042e-05 
  8.540000e+02   8.773543e-05 
  8.560000e+02   7.775089e-05 
  8.580000e+02   8.254813e-05 
  8.600000e+02   8.323891e-05 
  8.620000e+02   7.875615e-05 
  8.640000e+02   8.264012e-05 
  8.660000e+02   8.535857e-05 
  8.680000e+02   8.596332e-05 
  8.700000e+02   6.840540e-05 
  8.720000e+02   5.928521e-05 
  8.740000e+02   6.782574e-05 
  8.760000e+02   7.274680e-05 
  8.780000e+02   7.591015e-05 
  8.800000e+02   6.623508e-05 
  8.820000e+02   6.408470e-05 
  8.840000e+02   6.806992e-05 
  8.860000e+02   6.882114e-05 
  8.880000e+02   6.112410e-05 
  8.900000e+02   7.431838e-05 
  8.920000e+02   8.250904e-05 
  8.940000e+02   8.160780e-05 
  8.960000e+02   6.812987e-05 
  8.980000e+02   6.743628e-05 
  9.000000e+02   7.293716e-05 
  9.020000e+02   9.234652e-05 
  9.040000e+02   9.306759e-05 
  9.060000e+02   7.903385e-05 
  9.080000e+02   6.477637e-05 
  9.100000e+02   7.026716e-05 
  9.120000e+02   8.051585e-05 
  9.140000e+02   8.231100e-05 
  9.160000e+02   7.002550e-05 
  9.180000e+02   7.402662e-05 
  9.200000e+02   7.245451e-05 
  9.220000e+02   7.174366e-05 
  9.240000e+02   6.394065e-05 
  9.260000e+02   6.450806e-05 
  9.280000e+02   7.547718e-05 
  9.300000e+02   6.517746e-05 
  9.320000e+02   6.582243e-05 
  9.340000e+02   7.337272e-05 
  9.360000e+02   8.106574e-05 
  9.380000e+02   7.062742e-05 
  9.400000e+02   7.759162e-05 
  9.420000e+02   8.426897e-05 
  9.440000e+02   8.744288e-05 
  9.460000e+02   9.001228e-05 
  9.480000e+02   7.787038e-05 
  9.500000e+02   7.042919e-05 
  9.520000e+02   7.817869e-05 
  9.540000e+02   8.692561e-05 
  9.560000e+02   7.660919e-05 
  9.580000e+02   7.619495e-05 
  9.600000e+02   7.510144e-05 
  9.620000e+02   7.532135e-05 
  9.640000e+02   7.128626e-05 
  9.660000e+02   7.469112e-05 
  9.680000e+02   6.878942e-05 
  9.700000e+02   7.251206e-05 
  9.720000e+02   6.546029e-05 
  9.740000e+02   7.052223e-05 
  9.760000e+02   7.423324e-05 
  9.780000e+02   7.234558e-05 
  9.800000e+02   7.791341e-05 
  9.820000e+02   7.186669e-05 
  9.840000e+02   6.661122e-05 
  9.860000e+02   7.070722e-05 
  9.880000e+02   6.496139e-05 
  9.900000e+02   7.092670e-05 
  9.920000e+02   7.109425e-05 
  9.940000e+02   6.829605e-05 
  9.960000e+02   7.289879e-05 
  9.980000e+02   6.456608e-05 
  1.000000e+03   5.722853e-05 
  1.002000e+03   6.467404e-05 
  1.004000e+03   6.853089e-05 
  1.006000e+03   7.213093e-05 
  1.008000e+03   6.839309e-05 
  1.010000e+03   6.274019e-05 
  1.012000e+03   6.558784e-05 
  1.014000e+03   7.003954e-05 
  1.016000e+03   6.638182e-05 
  1.018000e+03   6.560882e-05 
  1.020000e+03   6.182314e-05 
  1.022000e+03   7.134864e-05 
  1.024000e+03   6.688433e-05 
  1.026000e+03   6.856184e-05 
  1.028000e+03   5.909411e-05 
  1.030000e+03   5.087087e-05 
  1.032000e+03   5.976290e-05 
  1.034000e+03   5.525905e-05 
  1.036000e+03   6.350448e-05 
  1.038000e+03   7.387261e-05 
  1.040000e+03   6.296207e-05 
  1.042000e+03   6.280621e-05 
  1.044000e+03   7.151376e-05 
  1.046000e+03   8.026828e-05 
  1.048000e+03   7.392626e-05 
  1.050000e+03   6.596059e-05 
  1.052000e+03   5.706365e-05 
  1.054000e+03   6.218303e-05 
  1.056000e+03   6.409180e-05 
  1.058000e+03   5.872696e-05 
  1.060000e+03   6.289870e-05 
  1.062000e+03   6.781438e-05 
  1.064000e+03   6.429802e-05 
  1.066000e+03   6.305438e-05 
  1.068000e+03   5.584136e-05 
  1.070000e+03   5.151856e-05 
  1.072000e+03   5.767225e-05 
  1.074000e+03   6.029334e-05 
  1.076000e+03   5.211448e-05 
  1.078000e+03   5.812209e-05 
  1.080000e+03   6.581406e-05 
  1.082000e+03   6.906597e-05 
  1.084000e+03   6.505838e-05 
  1.086000e+03   5.287359e-05 
  1.088000e+03   6.290549e-05 
  1.090000e+03   6.808528e-05 
  1.092000e+03   6.292554e-05 
  1.094000e+03   5.561990e-05 
  1.096000e+03   6.763115e-05 
  1.098000e+03   7.029139e-05 
  1.100000e+03   6.502745e-05 
  1.102000e+03   6.688310e-05 
  1.104000e+03   5.855423e-05 
  1.106000e+03   6.067021e-05 
  1.108000e+03   6.120092e-05 
  1.110000e+03   4.940237e-05 
  1.112000e+03   5.503411e-05 
  1.114000e+03   6.167922e-05 
  1.116000e+03   6.512659e-05 
  1.118000e+03   6.653063e-05 
  1.120000e+03   5.283074e-05 
  1.122000e+03   5.831621e-05 
  1.124000e+03   5.830302e-05 
  1.126000e+03   5.584421e-05 
  1.128000e+03   6.867264e-05 
  1.130000e+03   6.455297e-05 
  1.132000e+03   6.582215e-05 
  1.134000e+03   5.697647e-05 
  1.136000e+03   5.483613e-05 
  1.138000e+03   6.260655e-05 
  1.140000e+03   6.854754e-05 
  1.142000e+03   6.217111e-05 
  1.144000e+03   5.545393e-05 
  1.146000e+03   6.704463e-05 
  1.148000e+03   6.727193e-05 
  1.150000e+03   7.427027e-05 
  1.152000e+03   7.440717e-05 
  1.154000e+03   6.648001e-05 
  1.156000e+03   6.195350e-05 
  1.158000e+03   5.924378e-05 
  1.160000e+03   5.404531e-05 
  1.162000e+03   5.634692e-05 
  1.164000e+03   6.640702e-05 
  1.166000e+03   6.338325e-05 
  1.168000e+03   6.953482e-05 
  1.170000e+03   6.770068e-05 
  1.172000e+03   5.529014e-05 
  1.174000e+03   6.582262e-05 
  1.176000e+03   5.844419e-05 
  1.178000e+03   5.001976e-05 
  1.180000e+03   6.032957e-05 
  1.182000e+03   6.308955e-05 
  1.184000e+03   5.837400e-05 
  1.186000e+03   5.861229e-05 
  1.188000e+03   5.105548e-05 
  1.190000e+03   5.103527e-05 
  1.192000e+03   5.610025e-05 
  1.194000e+03   5.014599e-05 
  1.196000e+03   5.224848e-05 
  1.198000e+03   5.043378e-05 
  1.200000e+03   5.310290e-05 
  1.202000e+03   6.720881e-05 
  1.204000e+03   6.745020e-05 
  1.206000e+03   6.005618e-05 
  1.208000e+03   4.991626e-05 
  1.210000e+03   5.417455e-05 
  1.212000e+03   5.404968e-05 
  1.214000e+03   5.113640e-05 
  1.216000e+03   4.814295e-05 
  1.218000e+03   5.132124e-05 
  1.220000e+03   5.739074e-05 
  1.222000e+03   6.126285e-05 
  1.224000e+03   6.709732e-05 
  1.226000e+03   5.816738e-05 
  1.228000e+03   5.622583e-05 
  1.230000e+03   4.757449e-05 
  1.232000e+03   4.903672e-05 
  1.234000e+03   4.696097e-05 
  1.236000e+03   5.479109e-05 
  1.238000e+03   6.432821e-05 
  1.240000e+03   5.575506e-05 
  1.242000e+03   5.101820e-05 
  1.244000e+03   5.554418e-05 
  1.246000e+03   5.675417e-05 
  1.248000e+03   6.075454e-05 
  1.250000e+03   5.950142e-05 
  1.252000e+03   5.554429e-05 
  1.254000e+03   5.660686e-05 
  1.256000e+03   6.156047e-05 
  1.258000e+03   6.317590e-05 
  1.260000e+03   6.352864e-05 
  1.262000e+03   5.497761e-05 
  1.264000e+03   5.897358e-05 
  1.266000e+03   5.257051e-05 
  1.268000e+03   5.121233e-05 
  1.270000e+03   5.421257e-05 
  1.272000e+03   5.211385e-05 
  1.274000e+03   4.551799e-05 
  1.276000e+03   4.875265e-05 
  1.278000e+03   5.532380e-05 
  1.280000e+03   5.675535e-05 
  1.282000e+03   5.437166e-05 
  1.284000e+03   5.248000e-05 
  1.286000e+03   5.016546e-05 
  1.288000e+03   5.153732e-05 
  1.290000e+03   5.256319e-05 
  1.292000e+03   5.636203e-05 
  1.294000e+03   5.352427e-05 
  1.296000e+03   5.131695e-05 
  1.298000e+03   5.172793e-05 
  1.300000e+03   5.987349e-05 
  1.302000e+03   4.959020e-05 
  1.304000e+03   4.711570e-05 
  1.306000e+03   5.019504e-05 
  1.308000e+03   4.372414e-05 
  1.310000e+03   4.849852e-05 
  1.312000e+03   5.369916e-05 
  1.314000e+03   4.859991e-05 
  1.316000e+03   4.815513e-05 
  1.318000e+03   4.653345e-05 
  1.320000e+03   5.295664e-05 
  1.322000e+03   4.974570e-05 
  1.324000e+03   5.591134e-05 
  1.326000e+03   5.498311e-05 
  1.328000e+03   5.285932e-05 
  1.330000e+03   5.159335e-05 
  1.332000e+03   5.317383e-05 
  1.334000e+03   5.908314e-05 
  1.336000e+03   5.605270e-05 
  1.338000e+03   5.180917e-05 
  1.340000e+03   5.981810e-05 
  1.342000e+03   6.217497e-05 
  1.344000e+03   5.201516e-05 
  1.346000e+03   4.928183e-05 
  1.348000e+03   4.500624e-05 
  1.350000e+03   4.888006e-05 
  1.352000e+03   5.432379e-05 
  1.354000e+03   5.137278e-05 
  1.356000e+03   5.593700e-05 
  1.358000e+03   4.576308e-05 
  1.360000e+03   4.839053e-05 
  1.362000e+03   5.265745e-05 
  1.364000e+03   5.647449e-05 
  1.366000e+03   5.159605e-05 
  1.368000e+03   5.667672e-05 
  1.370000e+03   5.142466e-05 
  1.372000e+03   4.444706e-05 
  1.374000e+03   4.475026e-05 
  1.376000e+03   4.459472e-05 
  1.378000e+03   4.644645e-05 
  1.380000e+03   4.161889e-05 
  1.382000e+03   4.171690e-05 
  1.384000e+03   4.125614e-05 
  1.386000e+03   4.693898e-05 
  1.388000e+03   4.975703e-05 
  1.390000e+03   5.241340e-05 
  1.392000e+03   5.411209e-05 
  1.394000e+03   5.153477e-05 
  1.396000e+03   4.958713e-05 
  1.398000e+03   4.747796e-05 
  1.400000e+03   4.492767e-05 
  1.402000e+03   4.992951e-05 
  1.404000e+03   5.067703e-05 
  1.406000e+03   5.427488e-05 
  1.408000e+03   5.133971e-05 
  1.410000e+03   4.908238e-05 
  1.412000e+03   4.871107e-05 
  1.414000e+03   4.641683e-05 
  1.416000e+03   4.993697e-05 
  1.418000e+03   4.827698e-05 
  1.420000e+03   4.466757e-05 
  1.422000e+03   4.275957e-05 
  1.424000e+03   4.739048e-05 
  1.426000e+03   5.046468e-05 
  1.428000e+03   4.760686e-05 
  1.430000e+03   4.428952e-05 
  1.432000e+03   4.565402e-05 
  1.434000e+03   4.195185e-05 
  1.436000e+03   5.921351e-05 
  1.438000e+03   6.194967e-05 
  1.440000e+03   4.662480e-05 
  1.442000e+03   5.180178e-05 
  1.444000e+03   4.969916e-05 
  1.446000e+03   4.800024e-05 
  1.448000e+03   4.808647e-05 
  1.450000e+03   5.651199e-05 
  1.452000e+03   4.697454e-05 
  1.454000e+03   4.655900e-05 
  1.456000e+03   4.416771e-05 
  1.458000e+03   4.119508e-05 
  1.460000e+03   4.609847e-05 
  1.462000e+03   4.697853e-05 
  1.464000e+03   4.057594e-05 
  1.466000e+03   4.246687e-05 
  1.468000e+03   4.894165e-05 
  1.470000e+03   4.444073e-05 
  1.472000e+03   3.868251e-05 
  1.474000e+03   4.177412e-05 
  1.476000e+03   4.243860e-05 
  1.478000e+03   4.698932e-05 
  1.480000e+03   4.698062e-05 
  1.482000e+03   3.932394e-05 
  1.484000e+03   3.557913e-05 
  1.486000e+03   4.751056e-05 
  1.488000e+03   4.927425e-05 
  1.490000e+03   4.433382e-05 
  1.492000e+03   4.522299e-05 
  1.494000e+03   4.704652e-05 
  1.496000e+03   5.410246e-05 
  1.498000e+03   5.433145e-05 
  1.500000e+03   4.908559e-05 
  1.502000e+03   4.109385e-05 
  1.504000e+03   4.106544e-05 
  1.506000e+03   4.374513e-05 
  1.508000e+03   4.724123e-05 
  1.510000e+03   4.351282e-05 
  1.512000e+03   4.212074e-05 
  1.514000e+03   4.203719e-05 
  1.516000e+03   4.514004e-05 
  1.518000e+03   4.943678e-05 
  1.520000e+03   4.795227e-05 
  1.522000e+03   4.437316e-05 
  1.524000e+03   4.485053e-05 
  1.526000e+03   4.138390e-05 
  1.528000e+03   4.521770e-05 
  1.530000e+03   4.415135e-05 
  1.532000e+03   4.404620e-05 
  1.534000e+03   4.513823e-05 
  1.536000e+03   4.108226e-05 
  1.538000e+03   4.498044e-05 
  1.540000e+03   4.968214e-05 
  1.542000e+03   5.235674e-05 
  1.544000e+03   4.815042e-05 
  1.546000e+03   5.028711e-05 
  1.548000e+03   4.686898e-05 
  1.550000e+03   5.542182e-05 
  1.552000e+03   5.084027e-05 
  1.554000e+03   4.921898e-05 
  1.556000e+03   3.938698e-05 
  1.558000e+03   3.619325e-05 
  1.560000e+03   4.298674e-05 
  1.562000e+03   4.277894e-05 
  1.564000e+03   4.767254e-05 
  1.566000e+03   4.668211e-05 
  1.568000e+03   4.111862e-05 
  1.570000e+03   3.995673e-05 
  1.572000e+03   4.253452e-05 
  1.574000e+03   3.898387e-05 
  1.576000e+03   4.179030e-05 
  1.578000e+03   4.552388e-05 
  1.580000e+03   3.805686e-05 
  1.582000e+03   3.940460e-05 
  1.584000e+03   4.935364e-05 
  1.586000e+03   5.018919e-05 
  1.588000e+03   4.244087e-05 
  1.590000e+03   3.907751e-05 
  1.592000e+03   4.560184e-05 
  1.594000e+03   4.380535e-05 
  1.596000e+03   4.727297e-05 
  1.598000e+03   5.132700e-05 
  1.600000e+03   4.632634e-05 
