Input File: 20SN.78D
Measure Group: FFT
Measurement: FFT 1
Num of extracted Points: 801
Start Freq: -0 Hz
Span: 1.6 kHz
FFT Lines:  800 
Window: Hanning
Averaging Mode: RMS
Averaging Type: Exp. / Cont.
Number of Avg:  100
Overload reject: On

    X[Hz]      Vrms/Hz^(1/... 
  0.000000e+00   3.941573e-04 
  2.000000e+00   2.730988e-04 
  4.000000e+00   1.705477e-04 
  6.000000e+00   1.421336e-04 
  8.000000e+00   1.183104e-04 
  1.000000e+01   1.065934e-04 
  1.200000e+01   1.068367e-04 
  1.400000e+01   1.024363e-04 
  1.600000e+01   9.721985e-05 
  1.800000e+01   9.144683e-05 
  2.000000e+01   8.452648e-05 
  2.200000e+01   8.055231e-05 
  2.400000e+01   8.115962e-05 
  2.600000e+01   7.922477e-05 
  2.800000e+01   7.317590e-05 
  3.000000e+01   7.196639e-05 
  3.200000e+01   6.913668e-05 
  3.400000e+01   6.999632e-05 
  3.600000e+01   6.787821e-05 
  3.800000e+01   6.723582e-05 
  4.000000e+01   6.298322e-05 
  4.200000e+01   5.626772e-05 
  4.400000e+01   5.328847e-05 
  4.600000e+01   5.467749e-05 
  4.800000e+01   5.061375e-05 
  5.000000e+01   4.950089e-05 
  5.200000e+01   4.818633e-05 
  5.400000e+01   4.965832e-05 
  5.600000e+01   4.822081e-05 
  5.800000e+01   1.171717e-03 
  6.000000e+01   2.315679e-03 
  6.200000e+01   1.140726e-03 
  6.400000e+01   4.409392e-05 
  6.600000e+01   4.339316e-05 
  6.800000e+01   4.327080e-05 
  7.000000e+01   3.854779e-05 
  7.200000e+01   3.608085e-05 
  7.400000e+01   3.691370e-05 
  7.600000e+01   3.569508e-05 
  7.800000e+01   3.390667e-05 
  8.000000e+01   3.336315e-05 
  8.200000e+01   3.331750e-05 
  8.400000e+01   3.302953e-05 
  8.600000e+01   3.122201e-05 
  8.800000e+01   3.191954e-05 
  9.000000e+01   3.104458e-05 
  9.200000e+01   3.008526e-05 
  9.400000e+01   2.833005e-05 
  9.600000e+01   2.750241e-05 
  9.800000e+01   2.902387e-05 
  1.000000e+02   3.076015e-05 
  1.020000e+02   3.017291e-05 
  1.040000e+02   2.861840e-05 
  1.060000e+02   2.687912e-05 
  1.080000e+02   2.801392e-05 
  1.100000e+02   2.767720e-05 
  1.120000e+02   2.451493e-05 
  1.140000e+02   2.411542e-05 
  1.160000e+02   2.382212e-05 
  1.180000e+02   2.467927e-05 
  1.200000e+02   2.735472e-05 
  1.220000e+02   2.413158e-05 
  1.240000e+02   2.065271e-05 
  1.260000e+02   2.120001e-05 
  1.280000e+02   2.042337e-05 
  1.300000e+02   2.198238e-05 
  1.320000e+02   2.288026e-05 
  1.340000e+02   2.185203e-05 
  1.360000e+02   2.231088e-05 
  1.380000e+02   2.069252e-05 
  1.400000e+02   2.039437e-05 
  1.420000e+02   2.099692e-05 
  1.440000e+02   1.942688e-05 
  1.460000e+02   1.835404e-05 
  1.480000e+02   2.102536e-05 
  1.500000e+02   2.166004e-05 
  1.520000e+02   2.101168e-05 
  1.540000e+02   1.801727e-05 
  1.560000e+02   1.734249e-05 
  1.580000e+02   1.954576e-05 
  1.600000e+02   1.809715e-05 
  1.620000e+02   1.766802e-05 
  1.640000e+02   1.868037e-05 
  1.660000e+02   1.672820e-05 
  1.680000e+02   1.532199e-05 
  1.700000e+02   1.701093e-05 
  1.720000e+02   1.790890e-05 
  1.740000e+02   1.722268e-05 
  1.760000e+02   1.763482e-05 
  1.780000e+02   7.709557e-05 
  1.800000e+02   1.438152e-04 
  1.820000e+02   7.122957e-05 
  1.840000e+02   1.460288e-05 
  1.860000e+02   1.508537e-05 
  1.880000e+02   1.510534e-05 
  1.900000e+02   1.603257e-05 
  1.920000e+02   1.594145e-05 
  1.940000e+02   1.474882e-05 
  1.960000e+02   1.503622e-05 
  1.980000e+02   1.499552e-05 
  2.000000e+02   1.573197e-05 
  2.020000e+02   1.461954e-05 
  2.040000e+02   1.509293e-05 
  2.060000e+02   1.461157e-05 
  2.080000e+02   1.447081e-05 
  2.100000e+02   1.527252e-05 
  2.120000e+02   1.487072e-05 
  2.140000e+02   1.492060e-05 
  2.160000e+02   1.390244e-05 
  2.180000e+02   1.345275e-05 
  2.200000e+02   1.298571e-05 
  2.220000e+02   1.295992e-05 
  2.240000e+02   1.273066e-05 
  2.260000e+02   1.259027e-05 
  2.280000e+02   1.269372e-05 
  2.300000e+02   1.208970e-05 
  2.320000e+02   1.218089e-05 
  2.340000e+02   1.283467e-05 
  2.360000e+02   1.248397e-05 
  2.380000e+02   1.228935e-05 
  2.400000e+02   1.311153e-05 
  2.420000e+02   1.249427e-05 
  2.440000e+02   1.303547e-05 
  2.460000e+02   1.260755e-05 
  2.480000e+02   1.121419e-05 
  2.500000e+02   1.150107e-05 
  2.520000e+02   1.198153e-05 
  2.540000e+02   1.177648e-05 
  2.560000e+02   1.130330e-05 
  2.580000e+02   1.168337e-05 
  2.600000e+02   1.249422e-05 
  2.620000e+02   1.195085e-05 
  2.640000e+02   1.204768e-05 
  2.660000e+02   1.194980e-05 
  2.680000e+02   1.191997e-05 
  2.700000e+02   1.200362e-05 
  2.720000e+02   1.159578e-05 
  2.740000e+02   1.055777e-05 
  2.760000e+02   1.040740e-05 
  2.780000e+02   1.031477e-05 
  2.800000e+02   1.080691e-05 
  2.820000e+02   1.098007e-05 
  2.840000e+02   1.026201e-05 
  2.860000e+02   1.021616e-05 
  2.880000e+02   1.098867e-05 
  2.900000e+02   1.067303e-05 
  2.920000e+02   1.036443e-05 
  2.940000e+02   1.066006e-05 
  2.960000e+02   9.919879e-06 
  2.980000e+02   4.890495e-05 
  3.000000e+02   8.964271e-05 
  3.020000e+02   4.258274e-05 
  3.040000e+02   9.503874e-06 
  3.060000e+02   1.023493e-05 
  3.080000e+02   1.043567e-05 
  3.100000e+02   1.060637e-05 
  3.120000e+02   1.072835e-05 
  3.140000e+02   1.025352e-05 
  3.160000e+02   9.773702e-06 
  3.180000e+02   9.472583e-06 
  3.200000e+02   9.725170e-06 
  3.220000e+02   9.678983e-06 
  3.240000e+02   9.748839e-06 
  3.260000e+02   9.740926e-06 
  3.280000e+02   9.047589e-06 
  3.300000e+02   9.053982e-06 
  3.320000e+02   9.193815e-06 
  3.340000e+02   9.310270e-06 
  3.360000e+02   9.187791e-06 
  3.380000e+02   9.013981e-06 
  3.400000e+02   9.334316e-06 
  3.420000e+02   9.321048e-06 
  3.440000e+02   8.762924e-06 
  3.460000e+02   8.847929e-06 
  3.480000e+02   8.963460e-06 
  3.500000e+02   8.836504e-06 
  3.520000e+02   8.710841e-06 
  3.540000e+02   9.265626e-06 
  3.560000e+02   9.058803e-06 
  3.580000e+02   8.849729e-06 
  3.600000e+02   1.014376e-05 
  3.620000e+02   8.950732e-06 
  3.640000e+02   8.873440e-06 
  3.660000e+02   8.630709e-06 
  3.680000e+02   8.500858e-06 
  3.700000e+02   8.322500e-06 
  3.720000e+02   8.764231e-06 
  3.740000e+02   8.337936e-06 
  3.760000e+02   8.458497e-06 
  3.780000e+02   8.228906e-06 
  3.800000e+02   8.583844e-06 
  3.820000e+02   8.650369e-06 
  3.840000e+02   8.210912e-06 
  3.860000e+02   7.787581e-06 
  3.880000e+02   8.173542e-06 
  3.900000e+02   7.871939e-06 
  3.920000e+02   7.486396e-06 
  3.940000e+02   7.661435e-06 
  3.960000e+02   7.450517e-06 
  3.980000e+02   6.838864e-06 
  4.000000e+02   7.249428e-06 
  4.020000e+02   7.697444e-06 
  4.040000e+02   8.000328e-06 
  4.060000e+02   7.690013e-06 
  4.080000e+02   7.678820e-06 
  4.100000e+02   8.020964e-06 
  4.120000e+02   8.100371e-06 
  4.140000e+02   8.052793e-06 
  4.160000e+02   7.429401e-06 
  4.180000e+02   2.606785e-05 
  4.200000e+02   4.551814e-05 
  4.220000e+02   2.126869e-05 
  4.240000e+02   7.074899e-06 
  4.260000e+02   7.472332e-06 
  4.280000e+02   6.941738e-06 
  4.300000e+02   6.705645e-06 
  4.320000e+02   7.140597e-06 
  4.340000e+02   7.588991e-06 
  4.360000e+02   7.692805e-06 
  4.380000e+02   7.480939e-06 
  4.400000e+02   7.264550e-06 
  4.420000e+02   7.848541e-06 
  4.440000e+02   7.052568e-06 
  4.460000e+02   7.543826e-06 
  4.480000e+02   7.157194e-06 
  4.500000e+02   6.826529e-06 
  4.520000e+02   7.097867e-06 
  4.540000e+02   6.882740e-06 
  4.560000e+02   6.912491e-06 
  4.580000e+02   6.978476e-06 
  4.600000e+02   6.817022e-06 
  4.620000e+02   6.981880e-06 
  4.640000e+02   7.527828e-06 
  4.660000e+02   7.572648e-06 
  4.680000e+02   7.203847e-06 
  4.700000e+02   6.677230e-06 
  4.720000e+02   6.659063e-06 
  4.740000e+02   6.071569e-06 
  4.760000e+02   6.761084e-06 
  4.780000e+02   7.425304e-06 
  4.800000e+02   7.630285e-06 
  4.820000e+02   7.142988e-06 
  4.840000e+02   7.158849e-06 
  4.860000e+02   6.216158e-06 
  4.880000e+02   6.328017e-06 
  4.900000e+02   7.049856e-06 
  4.920000e+02   6.707934e-06 
  4.940000e+02   6.616082e-06 
  4.960000e+02   6.868407e-06 
  4.980000e+02   6.605800e-06 
  5.000000e+02   6.377402e-06 
  5.020000e+02   6.538964e-06 
  5.040000e+02   6.270339e-06 
  5.060000e+02   6.495602e-06 
  5.080000e+02   6.205706e-06 
  5.100000e+02   6.293214e-06 
  5.120000e+02   6.200259e-06 
  5.140000e+02   6.416864e-06 
  5.160000e+02   6.601170e-06 
  5.180000e+02   5.914442e-06 
  5.200000e+02   6.266181e-06 
  5.220000e+02   6.530775e-06 
  5.240000e+02   6.102500e-06 
  5.260000e+02   6.305019e-06 
  5.280000e+02   6.536673e-06 
  5.300000e+02   6.056024e-06 
  5.320000e+02   5.800352e-06 
  5.340000e+02   6.186111e-06 
  5.360000e+02   6.331878e-06 
  5.380000e+02   2.057908e-05 
  5.400000e+02   3.449985e-05 
  5.420000e+02   1.623212e-05 
  5.440000e+02   5.800574e-06 
  5.460000e+02   6.082939e-06 
  5.480000e+02   6.004406e-06 
  5.500000e+02   6.227081e-06 
  5.520000e+02   6.078546e-06 
  5.540000e+02   5.804645e-06 
  5.560000e+02   5.713297e-06 
  5.580000e+02   5.578931e-06 
  5.600000e+02   5.637140e-06 
  5.620000e+02   6.167134e-06 
  5.640000e+02   5.653821e-06 
  5.660000e+02   6.014377e-06 
  5.680000e+02   6.329625e-06 
  5.700000e+02   6.204162e-06 
  5.720000e+02   6.078258e-06 
  5.740000e+02   6.337323e-06 
  5.760000e+02   6.048455e-06 
  5.780000e+02   5.777290e-06 
  5.800000e+02   5.885330e-06 
  5.820000e+02   5.579279e-06 
  5.840000e+02   4.976786e-06 
  5.860000e+02   5.307330e-06 
  5.880000e+02   5.385152e-06 
  5.900000e+02   5.426528e-06 
  5.920000e+02   5.575142e-06 
  5.940000e+02   5.440101e-06 
  5.960000e+02   5.552496e-06 
  5.980000e+02   5.666037e-06 
  6.000000e+02   5.507296e-06 
  6.020000e+02   5.822020e-06 
  6.040000e+02   6.148984e-06 
  6.060000e+02   6.068379e-06 
  6.080000e+02   6.128229e-06 
  6.100000e+02   5.703898e-06 
  6.120000e+02   5.156509e-06 
  6.140000e+02   5.282788e-06 
  6.160000e+02   6.252205e-06 
  6.180000e+02   5.799732e-06 
  6.200000e+02   5.092534e-06 
  6.220000e+02   5.067658e-06 
  6.240000e+02   5.267081e-06 
  6.260000e+02   5.605115e-06 
  6.280000e+02   5.489898e-06 
  6.300000e+02   5.436916e-06 
  6.320000e+02   5.499051e-06 
  6.340000e+02   5.244202e-06 
  6.360000e+02   5.024698e-06 
  6.380000e+02   5.132513e-06 
  6.400000e+02   5.383531e-06 
  6.420000e+02   5.426645e-06 
  6.440000e+02   5.276255e-06 
  6.460000e+02   4.975378e-06 
  6.480000e+02   5.066288e-06 
  6.500000e+02   5.060205e-06 
  6.520000e+02   4.760966e-06 
  6.540000e+02   5.138055e-06 
  6.560000e+02   5.549638e-06 
  6.580000e+02   2.959796e-05 
  6.600000e+02   5.071287e-05 
  6.620000e+02   2.210418e-05 
  6.640000e+02   5.460487e-06 
  6.660000e+02   5.189904e-06 
  6.680000e+02   5.030073e-06 
  6.700000e+02   5.134706e-06 
  6.720000e+02   5.360278e-06 
  6.740000e+02   4.897863e-06 
  6.760000e+02   4.914356e-06 
  6.780000e+02   5.396744e-06 
  6.800000e+02   5.262155e-06 
  6.820000e+02   4.930886e-06 
  6.840000e+02   4.885405e-06 
  6.860000e+02   5.267574e-06 
  6.880000e+02   5.315911e-06 
  6.900000e+02   5.184438e-06 
  6.920000e+02   5.126994e-06 
  6.940000e+02   4.852900e-06 
  6.960000e+02   4.705746e-06 
  6.980000e+02   4.751566e-06 
  7.000000e+02   5.252256e-06 
  7.020000e+02   4.864596e-06 
  7.040000e+02   4.849318e-06 
  7.060000e+02   4.911712e-06 
  7.080000e+02   5.215752e-06 
  7.100000e+02   4.923208e-06 
  7.120000e+02   4.643940e-06 
  7.140000e+02   5.391979e-06 
  7.160000e+02   5.753121e-06 
  7.180000e+02   4.985471e-06 
  7.200000e+02   5.010604e-06 
  7.220000e+02   5.023798e-06 
  7.240000e+02   4.860905e-06 
  7.260000e+02   5.202392e-06 
  7.280000e+02   5.087828e-06 
  7.300000e+02   4.827514e-06 
  7.320000e+02   4.999762e-06 
  7.340000e+02   5.185153e-06 
  7.360000e+02   5.284728e-06 
  7.380000e+02   5.073486e-06 
  7.400000e+02   4.939889e-06 
  7.420000e+02   4.935877e-06 
  7.440000e+02   4.797096e-06 
  7.460000e+02   4.707878e-06 
  7.480000e+02   4.398335e-06 
  7.500000e+02   4.903025e-06 
  7.520000e+02   5.217793e-06 
  7.540000e+02   4.689628e-06 
  7.560000e+02   4.769930e-06 
  7.580000e+02   5.219819e-06 
  7.600000e+02   5.040955e-06 
  7.620000e+02   4.657589e-06 
  7.640000e+02   4.551967e-06 
  7.660000e+02   4.962148e-06 
  7.680000e+02   5.144335e-06 
  7.700000e+02   5.470381e-06 
  7.720000e+02   5.026658e-06 
  7.740000e+02   4.648849e-06 
  7.760000e+02   4.976074e-06 
  7.780000e+02   1.968937e-05 
  7.800000e+02   3.237595e-05 
  7.820000e+02   1.370825e-05 
  7.840000e+02   5.205392e-06 
  7.860000e+02   4.680108e-06 
  7.880000e+02   4.582967e-06 
  7.900000e+02   4.542817e-06 
  7.920000e+02   4.596742e-06 
  7.940000e+02   4.889724e-06 
  7.960000e+02   4.678297e-06 
  7.980000e+02   4.545960e-06 
  8.000000e+02   5.075795e-06 
  8.020000e+02   5.019093e-06 
  8.040000e+02   4.568630e-06 
  8.060000e+02   4.834636e-06 
  8.080000e+02   4.800917e-06 
  8.100000e+02   4.894624e-06 
  8.120000e+02   4.979804e-06 
  8.140000e+02   4.751919e-06 
  8.160000e+02   4.644074e-06 
  8.180000e+02   4.628989e-06 
  8.200000e+02   4.671986e-06 
  8.220000e+02   4.544072e-06 
  8.240000e+02   4.795395e-06 
  8.260000e+02   4.902754e-06 
  8.280000e+02   4.802648e-06 
  8.300000e+02   4.566432e-06 
  8.320000e+02   4.363063e-06 
  8.340000e+02   4.389402e-06 
  8.360000e+02   4.808727e-06 
  8.380000e+02   4.919130e-06 
  8.400000e+02   5.311335e-06 
  8.420000e+02   4.970121e-06 
  8.440000e+02   4.755717e-06 
  8.460000e+02   4.693570e-06 
  8.480000e+02   4.559879e-06 
  8.500000e+02   4.873613e-06 
  8.520000e+02   4.666611e-06 
  8.540000e+02   4.670714e-06 
  8.560000e+02   4.974379e-06 
  8.580000e+02   4.896565e-06 
  8.600000e+02   4.595726e-06 
  8.620000e+02   4.190171e-06 
  8.640000e+02   4.512810e-06 
  8.660000e+02   4.500605e-06 
  8.680000e+02   4.469456e-06 
  8.700000e+02   4.402925e-06 
  8.720000e+02   4.659842e-06 
  8.740000e+02   4.448700e-06 
  8.760000e+02   4.280621e-06 
  8.780000e+02   4.611842e-06 
  8.800000e+02   4.422803e-06 
  8.820000e+02   4.187691e-06 
  8.840000e+02   3.791924e-06 
  8.860000e+02   4.143870e-06 
  8.880000e+02   4.493076e-06 
  8.900000e+02   4.708351e-06 
  8.920000e+02   4.872237e-06 
  8.940000e+02   4.779909e-06 
  8.960000e+02   4.592004e-06 
  8.980000e+02   6.678166e-06 
  9.000000e+02   9.325868e-06 
  9.020000e+02   5.272942e-06 
  9.040000e+02   4.381033e-06 
  9.060000e+02   4.503574e-06 
  9.080000e+02   4.558263e-06 
  9.100000e+02   4.375651e-06 
  9.120000e+02   4.233077e-06 
  9.140000e+02   4.636172e-06 
  9.160000e+02   4.249949e-06 
  9.180000e+02   4.000864e-06 
  9.200000e+02   4.472942e-06 
  9.220000e+02   4.457601e-06 
  9.240000e+02   4.379253e-06 
  9.260000e+02   4.442672e-06 
  9.280000e+02   4.446339e-06 
  9.300000e+02   4.538383e-06 
  9.320000e+02   4.405116e-06 
  9.340000e+02   4.348929e-06 
  9.360000e+02   4.332197e-06 
  9.380000e+02   4.232032e-06 
  9.400000e+02   4.221649e-06 
  9.420000e+02   4.057253e-06 
  9.440000e+02   3.868598e-06 
  9.460000e+02   3.948507e-06 
  9.480000e+02   4.027074e-06 
  9.500000e+02   4.294245e-06 
  9.520000e+02   4.326037e-06 
  9.540000e+02   4.156577e-06 
  9.560000e+02   4.140459e-06 
  9.580000e+02   4.148281e-06 
  9.600000e+02   4.555656e-06 
  9.620000e+02   4.434519e-06 
  9.640000e+02   4.602276e-06 
  9.660000e+02   4.506828e-06 
  9.680000e+02   4.205187e-06 
  9.700000e+02   4.110933e-06 
  9.720000e+02   3.988324e-06 
  9.740000e+02   4.109099e-06 
  9.760000e+02   4.205641e-06 
  9.780000e+02   4.041741e-06 
  9.800000e+02   4.146432e-06 
  9.820000e+02   4.160873e-06 
  9.840000e+02   4.169704e-06 
  9.860000e+02   3.947222e-06 
  9.880000e+02   4.133115e-06 
  9.900000e+02   4.246103e-06 
  9.920000e+02   4.069409e-06 
  9.940000e+02   4.174887e-06 
  9.960000e+02   4.226099e-06 
  9.980000e+02   4.250391e-06 
  1.000000e+03   3.953864e-06 
  1.002000e+03   3.971216e-06 
  1.004000e+03   3.968350e-06 
  1.006000e+03   3.975904e-06 
  1.008000e+03   4.231665e-06 
  1.010000e+03   4.241929e-06 
  1.012000e+03   4.029082e-06 
  1.014000e+03   3.945316e-06 
  1.016000e+03   4.068409e-06 
  1.018000e+03   7.726259e-06 
  1.020000e+03   1.074208e-05 
  1.022000e+03   5.791552e-06 
  1.024000e+03   4.412793e-06 
  1.026000e+03   4.208129e-06 
  1.028000e+03   3.883122e-06 
  1.030000e+03   3.914326e-06 
  1.032000e+03   3.731920e-06 
  1.034000e+03   3.583702e-06 
  1.036000e+03   3.957706e-06 
  1.038000e+03   4.227177e-06 
  1.040000e+03   3.795920e-06 
  1.042000e+03   4.078093e-06 
  1.044000e+03   4.345706e-06 
  1.046000e+03   4.205656e-06 
  1.048000e+03   4.307665e-06 
  1.050000e+03   4.213017e-06 
  1.052000e+03   4.138282e-06 
  1.054000e+03   4.168108e-06 
  1.056000e+03   4.332886e-06 
  1.058000e+03   4.218173e-06 
  1.060000e+03   3.890405e-06 
  1.062000e+03   4.294892e-06 
  1.064000e+03   4.007406e-06 
  1.066000e+03   3.433061e-06 
  1.068000e+03   3.324657e-06 
  1.070000e+03   3.395119e-06 
  1.072000e+03   3.719151e-06 
  1.074000e+03   4.103550e-06 
  1.076000e+03   4.236463e-06 
  1.078000e+03   4.173420e-06 
  1.080000e+03   4.352614e-06 
  1.082000e+03   3.837366e-06 
  1.084000e+03   3.979478e-06 
  1.086000e+03   3.903905e-06 
  1.088000e+03   3.984898e-06 
  1.090000e+03   3.758202e-06 
  1.092000e+03   3.921405e-06 
  1.094000e+03   3.769714e-06 
  1.096000e+03   3.875623e-06 
  1.098000e+03   3.891856e-06 
  1.100000e+03   4.069231e-06 
  1.102000e+03   3.953353e-06 
  1.104000e+03   3.889988e-06 
  1.106000e+03   4.052506e-06 
  1.108000e+03   4.137061e-06 
  1.110000e+03   4.203351e-06 
  1.112000e+03   3.897525e-06 
  1.114000e+03   3.925125e-06 
  1.116000e+03   3.923532e-06 
  1.118000e+03   4.201408e-06 
  1.120000e+03   4.248559e-06 
  1.122000e+03   4.063403e-06 
  1.124000e+03   3.757645e-06 
  1.126000e+03   3.941980e-06 
  1.128000e+03   3.720461e-06 
  1.130000e+03   3.677942e-06 
  1.132000e+03   3.933623e-06 
  1.134000e+03   3.892944e-06 
  1.136000e+03   4.026828e-06 
  1.138000e+03   9.550167e-06 
  1.140000e+03   1.399919e-05 
  1.142000e+03   6.387502e-06 
  1.144000e+03   4.110382e-06 
  1.146000e+03   4.199464e-06 
  1.148000e+03   4.072750e-06 
  1.150000e+03   4.163278e-06 
  1.152000e+03   3.802611e-06 
  1.154000e+03   3.622188e-06 
  1.156000e+03   3.985398e-06 
  1.158000e+03   3.852560e-06 
  1.160000e+03   3.694784e-06 
  1.162000e+03   3.756759e-06 
  1.164000e+03   4.186710e-06 
  1.166000e+03   4.519266e-06 
  1.168000e+03   3.820534e-06 
  1.170000e+03   3.583981e-06 
  1.172000e+03   3.977285e-06 
  1.174000e+03   4.187595e-06 
  1.176000e+03   4.089154e-06 
  1.178000e+03   3.939290e-06 
  1.180000e+03   3.893768e-06 
  1.182000e+03   3.907036e-06 
  1.184000e+03   3.835067e-06 
  1.186000e+03   3.657616e-06 
  1.188000e+03   3.794203e-06 
  1.190000e+03   3.788261e-06 
  1.192000e+03   3.892790e-06 
  1.194000e+03   3.973021e-06 
  1.196000e+03   3.927650e-06 
  1.198000e+03   3.748537e-06 
  1.200000e+03   4.246378e-06 
  1.202000e+03   4.102585e-06 
  1.204000e+03   3.891722e-06 
  1.206000e+03   3.824081e-06 
  1.208000e+03   3.866238e-06 
  1.210000e+03   3.883167e-06 
  1.212000e+03   3.688641e-06 
  1.214000e+03   3.861691e-06 
  1.216000e+03   3.639090e-06 
  1.218000e+03   3.438551e-06 
  1.220000e+03   3.454371e-06 
  1.222000e+03   3.615074e-06 
  1.224000e+03   3.756584e-06 
  1.226000e+03   3.702535e-06 
  1.228000e+03   3.894736e-06 
  1.230000e+03   3.745290e-06 
  1.232000e+03   3.389532e-06 
  1.234000e+03   3.935879e-06 
  1.236000e+03   3.920870e-06 
  1.238000e+03   3.859104e-06 
  1.240000e+03   3.901238e-06 
  1.242000e+03   3.949231e-06 
  1.244000e+03   4.105350e-06 
  1.246000e+03   3.893018e-06 
  1.248000e+03   4.088185e-06 
  1.250000e+03   4.313194e-06 
  1.252000e+03   3.949193e-06 
  1.254000e+03   3.664075e-06 
  1.256000e+03   3.746479e-06 
  1.258000e+03   4.589725e-06 
  1.260000e+03   4.782515e-06 
  1.262000e+03   3.560468e-06 
  1.264000e+03   3.537558e-06 
  1.266000e+03   3.679197e-06 
  1.268000e+03   3.615057e-06 
  1.270000e+03   3.546659e-06 
  1.272000e+03   3.734639e-06 
  1.274000e+03   3.544701e-06 
  1.276000e+03   3.683781e-06 
  1.278000e+03   3.691096e-06 
  1.280000e+03   3.664560e-06 
  1.282000e+03   3.672703e-06 
  1.284000e+03   3.804306e-06 
  1.286000e+03   3.387432e-06 
  1.288000e+03   3.494940e-06 
  1.290000e+03   3.569362e-06 
  1.292000e+03   3.717233e-06 
  1.294000e+03   3.752865e-06 
  1.296000e+03   3.815146e-06 
  1.298000e+03   3.901631e-06 
  1.300000e+03   3.805619e-06 
  1.302000e+03   3.678282e-06 
  1.304000e+03   3.366966e-06 
  1.306000e+03   3.472379e-06 
  1.308000e+03   3.499666e-06 
  1.310000e+03   3.684238e-06 
  1.312000e+03   3.812135e-06 
  1.314000e+03   4.030834e-06 
  1.316000e+03   3.805506e-06 
  1.318000e+03   4.040803e-06 
  1.320000e+03   4.024170e-06 
  1.322000e+03   3.363578e-06 
  1.324000e+03   3.610359e-06 
  1.326000e+03   4.077092e-06 
  1.328000e+03   3.992357e-06 
  1.330000e+03   3.798620e-06 
  1.332000e+03   3.874857e-06 
  1.334000e+03   3.552550e-06 
  1.336000e+03   3.531987e-06 
  1.338000e+03   3.219623e-06 
  1.340000e+03   3.675384e-06 
  1.342000e+03   3.983637e-06 
  1.344000e+03   3.739731e-06 
  1.346000e+03   3.579294e-06 
  1.348000e+03   3.405323e-06 
  1.350000e+03   3.620176e-06 
  1.352000e+03   3.735818e-06 
  1.354000e+03   3.684465e-06 
  1.356000e+03   3.671253e-06 
  1.358000e+03   3.703710e-06 
  1.360000e+03   3.730212e-06 
  1.362000e+03   3.623400e-06 
  1.364000e+03   3.352906e-06 
  1.366000e+03   3.231882e-06 
  1.368000e+03   3.413176e-06 
  1.370000e+03   3.660438e-06 
  1.372000e+03   3.608010e-06 
  1.374000e+03   3.810223e-06 
  1.376000e+03   3.994943e-06 
  1.378000e+03   4.998602e-06 
  1.380000e+03   5.581381e-06 
  1.382000e+03   4.125878e-06 
  1.384000e+03   3.834100e-06 
  1.386000e+03   3.900517e-06 
  1.388000e+03   3.807515e-06 
  1.390000e+03   3.816633e-06 
  1.392000e+03   3.799857e-06 
  1.394000e+03   3.774463e-06 
  1.396000e+03   3.624604e-06 
  1.398000e+03   3.839429e-06 
  1.400000e+03   3.811983e-06 
  1.402000e+03   3.445677e-06 
  1.404000e+03   3.875458e-06 
  1.406000e+03   3.660617e-06 
  1.408000e+03   3.449365e-06 
  1.410000e+03   3.526739e-06 
  1.412000e+03   3.331185e-06 
  1.414000e+03   3.702592e-06 
  1.416000e+03   3.706067e-06 
  1.418000e+03   3.480284e-06 
  1.420000e+03   3.385996e-06 
  1.422000e+03   3.495141e-06 
  1.424000e+03   3.767859e-06 
  1.426000e+03   3.507772e-06 
  1.428000e+03   3.647939e-06 
  1.430000e+03   3.651978e-06 
  1.432000e+03   3.634162e-06 
  1.434000e+03   3.765757e-06 
  1.436000e+03   3.646666e-06 
  1.438000e+03   3.866146e-06 
  1.440000e+03   3.947584e-06 
  1.442000e+03   3.449323e-06 
  1.444000e+03   3.531243e-06 
  1.446000e+03   3.338337e-06 
  1.448000e+03   3.540877e-06 
  1.450000e+03   3.533775e-06 
  1.452000e+03   3.522814e-06 
  1.454000e+03   3.413985e-06 
  1.456000e+03   3.707812e-06 
  1.458000e+03   3.823068e-06 
  1.460000e+03   3.855214e-06 
  1.462000e+03   3.478811e-06 
  1.464000e+03   3.427785e-06 
  1.466000e+03   3.633755e-06 
  1.468000e+03   3.586323e-06 
  1.470000e+03   3.426495e-06 
  1.472000e+03   3.524984e-06 
  1.474000e+03   3.554773e-06 
  1.476000e+03   3.466866e-06 
  1.478000e+03   3.557377e-06 
  1.480000e+03   3.514805e-06 
  1.482000e+03   3.507427e-06 
  1.484000e+03   3.369007e-06 
  1.486000e+03   3.670988e-06 
  1.488000e+03   3.825421e-06 
  1.490000e+03   3.238975e-06 
  1.492000e+03   3.076961e-06 
  1.494000e+03   3.390114e-06 
  1.496000e+03   3.659298e-06 
  1.498000e+03   6.939987e-06 
  1.500000e+03   8.427623e-06 
  1.502000e+03   4.152345e-06 
  1.504000e+03   3.496321e-06 
  1.506000e+03   3.498108e-06 
  1.508000e+03   3.478571e-06 
  1.510000e+03   3.419116e-06 
  1.512000e+03   3.701474e-06 
  1.514000e+03   3.892216e-06 
  1.516000e+03   3.769282e-06 
  1.518000e+03   3.546627e-06 
  1.520000e+03   3.472587e-06 
  1.522000e+03   3.502904e-06 
  1.524000e+03   3.708464e-06 
  1.526000e+03   3.573981e-06 
  1.528000e+03   3.240435e-06 
  1.530000e+03   3.473852e-06 
  1.532000e+03   3.451698e-06 
  1.534000e+03   3.512736e-06 
  1.536000e+03   3.565318e-06 
  1.538000e+03   3.575053e-06 
  1.540000e+03   3.389266e-06 
  1.542000e+03   3.674583e-06 
  1.544000e+03   3.765600e-06 
  1.546000e+03   3.862753e-06 
  1.548000e+03   3.452667e-06 
  1.550000e+03   3.604589e-06 
  1.552000e+03   3.674438e-06 
  1.554000e+03   3.522959e-06 
  1.556000e+03   3.575766e-06 
  1.558000e+03   3.591922e-06 
  1.560000e+03   3.953493e-06 
  1.562000e+03   3.672797e-06 
  1.564000e+03   3.265757e-06 
  1.566000e+03   3.413135e-06 
  1.568000e+03   3.473592e-06 
  1.570000e+03   3.668601e-06 
  1.572000e+03   3.641673e-06 
  1.574000e+03   3.634501e-06 
  1.576000e+03   3.468897e-06 
  1.578000e+03   3.445300e-06 
  1.580000e+03   3.412535e-06 
  1.582000e+03   3.103868e-06 
  1.584000e+03   3.207320e-06 
  1.586000e+03   3.430752e-06 
  1.588000e+03   3.201033e-06 
  1.590000e+03   3.434187e-06 
  1.592000e+03   3.569880e-06 
  1.594000e+03   3.624673e-06 
  1.596000e+03   3.517401e-06 
  1.598000e+03   3.525355e-06 
  1.600000e+03   3.808193e-06 
