Input File: BN.78D
Measure Group: FFT
Measurement: FFT 1
Num of extracted Points: 801
Start Freq: -0 Hz
Span: 1.6 kHz
FFT Lines:  800 
Window: Hanning
Averaging Mode: RMS
Averaging Type: Exp. / Cont.
Number of Avg:   30
Overload reject: On

    X[Hz]      Vrms/Hz^(1/... 
  0.000000e+00   4.266513e-03 
  2.000000e+00   2.126022e-03 
  4.000000e+00   1.303423e-04 
  6.000000e+00   9.159431e-05 
  8.000000e+00   7.659882e-05 
  1.000000e+01   6.346881e-05 
  1.200000e+01   5.630252e-05 
  1.400000e+01   5.537360e-05 
  1.600000e+01   4.554798e-05 
  1.800000e+01   4.101709e-05 
  2.000000e+01   4.145058e-05 
  2.200000e+01   3.816333e-05 
  2.400000e+01   3.200241e-05 
  2.600000e+01   2.945333e-05 
  2.800000e+01   3.013265e-05 
  3.000000e+01   3.254390e-05 
  3.200000e+01   3.021919e-05 
  3.400000e+01   2.917672e-05 
  3.600000e+01   2.858029e-05 
  3.800000e+01   2.913956e-05 
  4.000000e+01   2.738616e-05 
  4.200000e+01   2.929777e-05 
  4.400000e+01   2.681785e-05 
  4.600000e+01   2.685093e-05 
  4.800000e+01   2.756944e-05 
  5.000000e+01   2.678816e-05 
  5.200000e+01   2.668351e-05 
  5.400000e+01   2.561863e-05 
  5.600000e+01   2.702288e-05 
  5.800000e+01   4.442383e-05 
  6.000000e+01   6.990788e-05 
  6.200000e+01   3.809922e-05 
  6.400000e+01   2.557563e-05 
  6.600000e+01   2.405521e-05 
  6.800000e+01   2.562531e-05 
  7.000000e+01   2.887183e-05 
  7.200000e+01   2.982914e-05 
  7.400000e+01   2.932615e-05 
  7.600000e+01   2.693843e-05 
  7.800000e+01   2.851018e-05 
  8.000000e+01   2.580778e-05 
  8.200000e+01   2.487356e-05 
  8.400000e+01   2.682805e-05 
  8.600000e+01   2.791442e-05 
  8.800000e+01   2.414927e-05 
  9.000000e+01   2.278062e-05 
  9.200000e+01   2.453230e-05 
  9.400000e+01   2.579539e-05 
  9.600000e+01   2.686531e-05 
  9.800000e+01   2.676234e-05 
  1.000000e+02   2.710114e-05 
  1.020000e+02   3.003767e-05 
  1.040000e+02   2.665069e-05 
  1.060000e+02   2.424351e-05 
  1.080000e+02   2.555085e-05 
  1.100000e+02   2.517387e-05 
  1.120000e+02   2.738198e-05 
  1.140000e+02   2.687320e-05 
  1.160000e+02   2.772670e-05 
  1.180000e+02   3.973045e-05 
  1.200000e+02   6.222820e-05 
  1.220000e+02   3.862828e-05 
  1.240000e+02   2.882865e-05 
  1.260000e+02   2.625912e-05 
  1.280000e+02   2.798500e-05 
  1.300000e+02   2.939626e-05 
  1.320000e+02   2.469863e-05 
  1.340000e+02   2.704014e-05 
  1.360000e+02   2.628144e-05 
  1.380000e+02   2.574518e-05 
  1.400000e+02   2.531298e-05 
  1.420000e+02   2.759588e-05 
  1.440000e+02   2.582033e-05 
  1.460000e+02   2.537772e-05 
  1.480000e+02   2.605564e-05 
  1.500000e+02   2.468954e-05 
  1.520000e+02   2.667589e-05 
  1.540000e+02   2.783718e-05 
  1.560000e+02   2.528972e-05 
  1.580000e+02   2.746986e-05 
  1.600000e+02   2.709283e-05 
  1.620000e+02   2.493637e-05 
  1.640000e+02   2.468498e-05 
  1.660000e+02   2.739860e-05 
  1.680000e+02   2.979213e-05 
  1.700000e+02   2.890292e-05 
  1.720000e+02   2.640109e-05 
  1.740000e+02   2.697782e-05 
  1.760000e+02   2.579694e-05 
  1.780000e+02   2.701169e-05 
  1.800000e+02   2.595977e-05 
  1.820000e+02   2.459099e-05 
  1.840000e+02   2.573484e-05 
  1.860000e+02   2.575825e-05 
  1.880000e+02   2.467258e-05 
  1.900000e+02   2.325904e-05 
  1.920000e+02   2.580274e-05 
  1.940000e+02   2.548200e-05 
  1.960000e+02   2.746918e-05 
  1.980000e+02   2.665165e-05 
  2.000000e+02   2.364633e-05 
  2.020000e+02   2.470991e-05 
  2.040000e+02   2.638276e-05 
  2.060000e+02   2.491604e-05 
  2.080000e+02   2.713296e-05 
  2.100000e+02   2.837329e-05 
  2.120000e+02   2.578956e-05 
  2.140000e+02   2.574532e-05 
  2.160000e+02   2.447852e-05 
  2.180000e+02   2.807666e-05 
  2.200000e+02   2.773105e-05 
  2.220000e+02   2.492777e-05 
  2.240000e+02   3.021268e-05 
  2.260000e+02   2.831387e-05 
  2.280000e+02   2.730096e-05 
  2.300000e+02   2.788285e-05 
  2.320000e+02   2.806898e-05 
  2.340000e+02   2.488134e-05 
  2.360000e+02   2.630661e-05 
  2.380000e+02   3.019768e-05 
  2.400000e+02   3.495924e-05 
  2.420000e+02   3.100366e-05 
  2.440000e+02   3.138539e-05 
  2.460000e+02   2.935690e-05 
  2.480000e+02   2.401249e-05 
  2.500000e+02   2.577290e-05 
  2.520000e+02   2.706924e-05 
  2.540000e+02   2.733090e-05 
  2.560000e+02   2.759691e-05 
  2.580000e+02   2.643240e-05 
  2.600000e+02   2.709627e-05 
  2.620000e+02   2.607366e-05 
  2.640000e+02   2.491470e-05 
  2.660000e+02   2.738463e-05 
  2.680000e+02   3.247136e-05 
  2.700000e+02   2.916424e-05 
  2.720000e+02   2.688541e-05 
  2.740000e+02   2.609304e-05 
  2.760000e+02   2.663914e-05 
  2.780000e+02   2.764199e-05 
  2.800000e+02   2.926015e-05 
  2.820000e+02   2.943381e-05 
  2.840000e+02   3.055860e-05 
  2.860000e+02   3.112257e-05 
  2.880000e+02   2.799678e-05 
  2.900000e+02   2.530696e-05 
  2.920000e+02   2.655222e-05 
  2.940000e+02   2.709924e-05 
  2.960000e+02   3.164041e-05 
  2.980000e+02   3.183441e-05 
  3.000000e+02   3.034383e-05 
  3.020000e+02   2.891898e-05 
  3.040000e+02   2.615924e-05 
  3.060000e+02   2.607604e-05 
  3.080000e+02   2.643135e-05 
  3.100000e+02   2.444833e-05 
  3.120000e+02   2.571110e-05 
  3.140000e+02   2.790058e-05 
  3.160000e+02   2.775309e-05 
  3.180000e+02   2.620944e-05 
  3.200000e+02   2.943135e-05 
  3.220000e+02   2.962244e-05 
  3.240000e+02   2.799167e-05 
  3.260000e+02   2.815792e-05 
  3.280000e+02   2.761967e-05 
  3.300000e+02   2.570461e-05 
  3.320000e+02   2.792345e-05 
  3.340000e+02   2.728601e-05 
  3.360000e+02   2.586864e-05 
  3.380000e+02   2.690448e-05 
  3.400000e+02   2.767372e-05 
  3.420000e+02   2.948068e-05 
  3.440000e+02   2.622054e-05 
  3.460000e+02   2.594523e-05 
  3.480000e+02   2.808298e-05 
  3.500000e+02   2.922469e-05 
  3.520000e+02   2.999059e-05 
  3.540000e+02   2.765127e-05 
  3.560000e+02   2.941814e-05 
  3.580000e+02   2.923316e-05 
  3.600000e+02   2.644148e-05 
  3.620000e+02   2.492064e-05 
  3.640000e+02   2.632553e-05 
  3.660000e+02   2.966844e-05 
  3.680000e+02   2.900061e-05 
  3.700000e+02   2.542560e-05 
  3.720000e+02   2.356646e-05 
  3.740000e+02   2.583734e-05 
  3.760000e+02   3.024359e-05 
  3.780000e+02   2.882247e-05 
  3.800000e+02   2.954503e-05 
  3.820000e+02   2.728631e-05 
  3.840000e+02   2.614849e-05 
  3.860000e+02   2.422806e-05 
  3.880000e+02   2.754852e-05 
  3.900000e+02   2.937216e-05 
  3.920000e+02   2.679699e-05 
  3.940000e+02   2.759461e-05 
  3.960000e+02   3.005915e-05 
  3.980000e+02   2.925106e-05 
  4.000000e+02   2.695032e-05 
  4.020000e+02   2.891186e-05 
  4.040000e+02   2.784206e-05 
  4.060000e+02   2.611904e-05 
  4.080000e+02   2.594010e-05 
  4.100000e+02   2.303087e-05 
  4.120000e+02   2.351071e-05 
  4.140000e+02   2.694550e-05 
  4.160000e+02   2.778406e-05 
  4.180000e+02   2.671798e-05 
  4.200000e+02   2.835407e-05 
  4.220000e+02   2.888038e-05 
  4.240000e+02   2.866950e-05 
  4.260000e+02   2.919180e-05 
  4.280000e+02   2.950139e-05 
  4.300000e+02   2.870267e-05 
  4.320000e+02   2.690073e-05 
  4.340000e+02   2.862171e-05 
  4.360000e+02   2.994590e-05 
  4.380000e+02   2.740103e-05 
  4.400000e+02   2.823982e-05 
  4.420000e+02   2.488410e-05 
  4.440000e+02   2.542344e-05 
  4.460000e+02   2.603075e-05 
  4.480000e+02   2.656343e-05 
  4.500000e+02   2.622263e-05 
  4.520000e+02   2.891165e-05 
  4.540000e+02   2.916064e-05 
  4.560000e+02   2.695586e-05 
  4.580000e+02   2.798510e-05 
  4.600000e+02   2.706167e-05 
  4.620000e+02   2.598647e-05 
  4.640000e+02   2.680858e-05 
  4.660000e+02   3.300445e-05 
  4.680000e+02   3.394248e-05 
  4.700000e+02   3.059116e-05 
  4.720000e+02   3.004432e-05 
  4.740000e+02   2.939615e-05 
  4.760000e+02   2.671526e-05 
  4.780000e+02   2.789569e-05 
  4.800000e+02   2.967577e-05 
  4.820000e+02   2.956177e-05 
  4.840000e+02   3.010974e-05 
  4.860000e+02   3.103878e-05 
  4.880000e+02   3.135221e-05 
  4.900000e+02   3.010773e-05 
  4.920000e+02   2.744133e-05 
  4.940000e+02   2.930583e-05 
  4.960000e+02   3.015340e-05 
  4.980000e+02   2.583446e-05 
  5.000000e+02   2.513112e-05 
  5.020000e+02   2.713391e-05 
  5.040000e+02   3.046867e-05 
  5.060000e+02   3.093619e-05 
  5.080000e+02   3.064941e-05 
  5.100000e+02   3.055189e-05 
  5.120000e+02   2.679110e-05 
  5.140000e+02   2.777347e-05 
  5.160000e+02   2.886147e-05 
  5.180000e+02   2.868546e-05 
  5.200000e+02   2.884223e-05 
  5.220000e+02   3.141848e-05 
  5.240000e+02   3.021293e-05 
  5.260000e+02   3.215487e-05 
  5.280000e+02   3.169022e-05 
  5.300000e+02   2.974618e-05 
  5.320000e+02   3.192696e-05 
  5.340000e+02   3.253759e-05 
  5.360000e+02   2.863030e-05 
  5.380000e+02   3.215556e-05 
  5.400000e+02   3.613532e-05 
  5.420000e+02   3.292850e-05 
  5.440000e+02   3.139756e-05 
  5.460000e+02   3.020331e-05 
  5.480000e+02   2.557353e-05 
  5.500000e+02   2.680749e-05 
  5.520000e+02   2.690482e-05 
  5.540000e+02   2.843429e-05 
  5.560000e+02   2.840161e-05 
  5.580000e+02   2.888200e-05 
  5.600000e+02   3.028207e-05 
  5.620000e+02   2.930103e-05 
  5.640000e+02   2.762429e-05 
  5.660000e+02   2.870596e-05 
  5.680000e+02   3.148244e-05 
  5.700000e+02   3.032000e-05 
  5.720000e+02   2.968045e-05 
  5.740000e+02   3.344757e-05 
  5.760000e+02   3.366416e-05 
  5.780000e+02   2.841304e-05 
  5.800000e+02   3.105442e-05 
  5.820000e+02   3.040745e-05 
  5.840000e+02   2.877992e-05 
  5.860000e+02   2.864303e-05 
  5.880000e+02   3.020314e-05 
  5.900000e+02   2.778744e-05 
  5.920000e+02   2.753455e-05 
  5.940000e+02   3.237492e-05 
  5.960000e+02   3.051166e-05 
  5.980000e+02   3.303984e-05 
  6.000000e+02   2.863392e-05 
  6.020000e+02   3.110661e-05 
  6.040000e+02   3.470875e-05 
  6.060000e+02   3.064464e-05 
  6.080000e+02   3.066278e-05 
  6.100000e+02   3.135643e-05 
  6.120000e+02   3.044650e-05 
  6.140000e+02   3.092703e-05 
  6.160000e+02   3.174182e-05 
  6.180000e+02   2.851282e-05 
  6.200000e+02   2.673873e-05 
  6.220000e+02   3.033071e-05 
  6.240000e+02   3.004226e-05 
  6.260000e+02   2.961966e-05 
  6.280000e+02   3.261477e-05 
  6.300000e+02   3.236750e-05 
  6.320000e+02   3.095025e-05 
  6.340000e+02   2.879535e-05 
  6.360000e+02   2.630594e-05 
  6.380000e+02   2.587664e-05 
  6.400000e+02   3.107237e-05 
  6.420000e+02   3.199952e-05 
  6.440000e+02   3.346540e-05 
  6.460000e+02   2.915551e-05 
  6.480000e+02   2.956148e-05 
  6.500000e+02   2.890917e-05 
  6.520000e+02   2.844163e-05 
  6.540000e+02   2.803210e-05 
  6.560000e+02   3.174844e-05 
  6.580000e+02   3.282969e-05 
  6.600000e+02   3.132828e-05 
  6.620000e+02   2.932674e-05 
  6.640000e+02   3.069928e-05 
  6.660000e+02   3.094485e-05 
  6.680000e+02   3.048760e-05 
  6.700000e+02   3.227655e-05 
  6.720000e+02   3.134886e-05 
  6.740000e+02   2.828020e-05 
  6.760000e+02   2.874560e-05 
  6.780000e+02   3.204361e-05 
  6.800000e+02   3.168490e-05 
  6.820000e+02   3.547918e-05 
  6.840000e+02   3.331871e-05 
  6.860000e+02   3.114545e-05 
  6.880000e+02   3.016096e-05 
  6.900000e+02   2.984245e-05 
  6.920000e+02   3.294998e-05 
  6.940000e+02   2.954149e-05 
  6.960000e+02   3.128322e-05 
  6.980000e+02   3.650294e-05 
  7.000000e+02   3.536238e-05 
  7.020000e+02   3.253136e-05 
  7.040000e+02   2.854113e-05 
  7.060000e+02   2.975013e-05 
  7.080000e+02   3.011469e-05 
  7.100000e+02   2.995847e-05 
  7.120000e+02   2.926988e-05 
  7.140000e+02   3.041422e-05 
  7.160000e+02   3.213943e-05 
  7.180000e+02   3.373473e-05 
  7.200000e+02   3.036529e-05 
  7.220000e+02   3.186437e-05 
  7.240000e+02   3.068134e-05 
  7.260000e+02   3.267231e-05 
  7.280000e+02   3.137231e-05 
  7.300000e+02   3.140213e-05 
  7.320000e+02   3.057638e-05 
  7.340000e+02   3.143692e-05 
  7.360000e+02   2.890719e-05 
  7.380000e+02   3.081613e-05 
  7.400000e+02   3.058829e-05 
  7.420000e+02   2.977239e-05 
  7.440000e+02   3.017033e-05 
  7.460000e+02   3.228760e-05 
  7.480000e+02   3.371177e-05 
  7.500000e+02   3.271525e-05 
  7.520000e+02   3.320900e-05 
  7.540000e+02   3.211118e-05 
  7.560000e+02   3.448935e-05 
  7.580000e+02   3.646563e-05 
  7.600000e+02   3.335633e-05 
  7.620000e+02   2.959649e-05 
  7.640000e+02   2.928535e-05 
  7.660000e+02   3.045095e-05 
  7.680000e+02   3.467109e-05 
  7.700000e+02   3.426504e-05 
  7.720000e+02   3.484406e-05 
  7.740000e+02   3.132220e-05 
  7.760000e+02   2.971874e-05 
  7.780000e+02   3.100052e-05 
  7.800000e+02   2.774598e-05 
  7.820000e+02   3.109653e-05 
  7.840000e+02   3.262925e-05 
  7.860000e+02   3.709107e-05 
  7.880000e+02   3.561411e-05 
  7.900000e+02   3.408351e-05 
  7.920000e+02   3.148801e-05 
  7.940000e+02   3.179089e-05 
  7.960000e+02   3.493564e-05 
  7.980000e+02   3.558882e-05 
  8.000000e+02   3.546639e-05 
  8.020000e+02   3.401681e-05 
  8.040000e+02   3.271707e-05 
  8.060000e+02   3.523788e-05 
  8.080000e+02   3.757442e-05 
  8.100000e+02   3.507226e-05 
  8.120000e+02   3.259627e-05 
  8.140000e+02   3.793279e-05 
  8.160000e+02   3.539183e-05 
  8.180000e+02   3.295724e-05 
  8.200000e+02   3.266909e-05 
  8.220000e+02   3.373216e-05 
  8.240000e+02   3.448954e-05 
  8.260000e+02   3.720924e-05 
  8.280000e+02   3.692777e-05 
  8.300000e+02   3.533664e-05 
  8.320000e+02   3.388024e-05 
  8.340000e+02   3.375642e-05 
  8.360000e+02   3.347961e-05 
  8.380000e+02   3.028539e-05 
  8.400000e+02   3.086876e-05 
  8.420000e+02   3.201360e-05 
  8.440000e+02   3.347001e-05 
  8.460000e+02   3.315835e-05 
  8.480000e+02   3.186571e-05 
  8.500000e+02   3.318167e-05 
  8.520000e+02   3.151978e-05 
  8.540000e+02   3.374933e-05 
  8.560000e+02   3.716883e-05 
  8.580000e+02   3.454170e-05 
  8.600000e+02   3.614946e-05 
  8.620000e+02   3.414298e-05 
  8.640000e+02   3.153747e-05 
  8.660000e+02   3.261195e-05 
  8.680000e+02   3.171643e-05 
  8.700000e+02   3.308050e-05 
  8.720000e+02   3.166226e-05 
  8.740000e+02   3.211835e-05 
  8.760000e+02   3.551897e-05 
  8.780000e+02   3.849935e-05 
  8.800000e+02   3.755707e-05 
  8.820000e+02   3.590685e-05 
  8.840000e+02   3.411494e-05 
  8.860000e+02   3.274139e-05 
  8.880000e+02   3.260346e-05 
  8.900000e+02   3.657545e-05 
  8.920000e+02   3.644307e-05 
  8.940000e+02   3.489276e-05 
  8.960000e+02   3.320825e-05 
  8.980000e+02   3.307199e-05 
  9.000000e+02   3.436480e-05 
  9.020000e+02   3.353152e-05 
  9.040000e+02   3.599286e-05 
  9.060000e+02   3.636300e-05 
  9.080000e+02   3.757960e-05 
  9.100000e+02   3.714588e-05 
  9.120000e+02   3.777447e-05 
  9.140000e+02   4.092487e-05 
  9.160000e+02   3.702299e-05 
  9.180000e+02   3.298887e-05 
  9.200000e+02   3.194297e-05 
  9.220000e+02   3.367930e-05 
  9.240000e+02   3.767397e-05 
  9.260000e+02   3.875956e-05 
  9.280000e+02   4.022187e-05 
  9.300000e+02   3.727709e-05 
  9.320000e+02   3.712129e-05 
  9.340000e+02   3.832017e-05 
  9.360000e+02   4.264386e-05 
  9.380000e+02   3.608864e-05 
  9.400000e+02   3.123772e-05 
  9.420000e+02   3.291491e-05 
  9.440000e+02   3.560397e-05 
  9.460000e+02   3.801845e-05 
  9.480000e+02   3.338436e-05 
  9.500000e+02   3.242375e-05 
  9.520000e+02   3.630125e-05 
  9.540000e+02   3.485427e-05 
  9.560000e+02   3.747287e-05 
  9.580000e+02   3.549947e-05 
  9.600000e+02   3.401154e-05 
  9.620000e+02   3.306452e-05 
  9.640000e+02   3.729910e-05 
  9.660000e+02   3.811912e-05 
  9.680000e+02   3.737447e-05 
  9.700000e+02   3.543698e-05 
  9.720000e+02   3.092069e-05 
  9.740000e+02   3.389478e-05 
  9.760000e+02   3.453004e-05 
  9.780000e+02   3.737951e-05 
  9.800000e+02   3.895877e-05 
  9.820000e+02   3.353207e-05 
  9.840000e+02   3.337509e-05 
  9.860000e+02   3.639182e-05 
  9.880000e+02   3.524862e-05 
  9.900000e+02   3.629868e-05 
  9.920000e+02   3.592731e-05 
  9.940000e+02   3.706442e-05 
  9.960000e+02   3.679682e-05 
  9.980000e+02   3.593625e-05 
  1.000000e+03   3.337648e-05 
  1.002000e+03   3.385812e-05 
  1.004000e+03   3.991385e-05 
  1.006000e+03   4.251585e-05 
  1.008000e+03   3.886570e-05 
  1.010000e+03   4.022631e-05 
  1.012000e+03   3.706557e-05 
  1.014000e+03   3.546421e-05 
  1.016000e+03   3.573382e-05 
  1.018000e+03   3.708394e-05 
  1.020000e+03   3.321510e-05 
  1.022000e+03   3.109155e-05 
  1.024000e+03   3.543188e-05 
  1.026000e+03   4.251506e-05 
  1.028000e+03   4.106343e-05 
  1.030000e+03   4.075358e-05 
  1.032000e+03   4.004464e-05 
  1.034000e+03   3.693772e-05 
  1.036000e+03   3.817710e-05 
  1.038000e+03   3.932419e-05 
  1.040000e+03   4.052435e-05 
  1.042000e+03   3.957337e-05 
  1.044000e+03   3.943425e-05 
  1.046000e+03   3.676565e-05 
  1.048000e+03   3.682836e-05 
  1.050000e+03   3.837133e-05 
  1.052000e+03   3.896503e-05 
  1.054000e+03   4.014802e-05 
  1.056000e+03   3.770824e-05 
  1.058000e+03   3.511794e-05 
  1.060000e+03   3.472209e-05 
  1.062000e+03   3.814266e-05 
  1.064000e+03   3.929090e-05 
  1.066000e+03   4.225217e-05 
  1.068000e+03   3.961829e-05 
  1.070000e+03   3.966271e-05 
  1.072000e+03   4.424308e-05 
  1.074000e+03   4.301232e-05 
  1.076000e+03   3.860577e-05 
  1.078000e+03   4.172535e-05 
  1.080000e+03   4.123508e-05 
  1.082000e+03   4.161396e-05 
  1.084000e+03   4.730446e-05 
  1.086000e+03   4.235947e-05 
  1.088000e+03   3.952394e-05 
  1.090000e+03   3.600909e-05 
  1.092000e+03   3.889505e-05 
  1.094000e+03   3.960105e-05 
  1.096000e+03   3.747390e-05 
  1.098000e+03   3.710841e-05 
  1.100000e+03   4.045686e-05 
  1.102000e+03   4.101916e-05 
  1.104000e+03   3.931564e-05 
  1.106000e+03   3.992276e-05 
  1.108000e+03   4.268525e-05 
  1.110000e+03   4.321269e-05 
  1.112000e+03   3.961314e-05 
  1.114000e+03   4.295831e-05 
  1.116000e+03   4.395292e-05 
  1.118000e+03   4.272588e-05 
  1.120000e+03   4.193257e-05 
  1.122000e+03   4.188067e-05 
  1.124000e+03   4.390872e-05 
  1.126000e+03   4.296207e-05 
  1.128000e+03   4.071746e-05 
  1.130000e+03   4.257139e-05 
  1.132000e+03   4.132851e-05 
  1.134000e+03   4.268841e-05 
  1.136000e+03   4.531027e-05 
  1.138000e+03   4.628150e-05 
  1.140000e+03   4.474727e-05 
  1.142000e+03   4.358789e-05 
  1.144000e+03   4.091209e-05 
  1.146000e+03   4.269056e-05 
  1.148000e+03   4.629917e-05 
  1.150000e+03   4.538831e-05 
  1.152000e+03   4.802338e-05 
  1.154000e+03   4.523874e-05 
  1.156000e+03   4.452789e-05 
  1.158000e+03   4.485667e-05 
  1.160000e+03   4.495318e-05 
  1.162000e+03   4.443570e-05 
  1.164000e+03   4.585236e-05 
  1.166000e+03   4.438638e-05 
  1.168000e+03   4.519298e-05 
  1.170000e+03   5.055603e-05 
  1.172000e+03   4.765967e-05 
  1.174000e+03   4.068423e-05 
  1.176000e+03   4.601832e-05 
  1.178000e+03   4.993172e-05 
  1.180000e+03   4.681253e-05 
  1.182000e+03   4.540487e-05 
  1.184000e+03   4.233838e-05 
  1.186000e+03   4.461754e-05 
  1.188000e+03   4.621642e-05 
  1.190000e+03   4.386425e-05 
  1.192000e+03   4.241496e-05 
  1.194000e+03   4.239054e-05 
  1.196000e+03   4.332527e-05 
  1.198000e+03   4.417562e-05 
  1.200000e+03   4.893200e-05 
  1.202000e+03   4.539644e-05 
  1.204000e+03   4.632145e-05 
  1.206000e+03   4.332079e-05 
  1.208000e+03   3.957752e-05 
  1.210000e+03   4.272435e-05 
  1.212000e+03   4.258967e-05 
  1.214000e+03   3.917614e-05 
  1.216000e+03   3.914842e-05 
  1.218000e+03   4.573166e-05 
  1.220000e+03   5.128800e-05 
  1.222000e+03   4.779976e-05 
  1.224000e+03   4.958530e-05 
  1.226000e+03   4.542205e-05 
  1.228000e+03   4.460376e-05 
  1.230000e+03   4.340586e-05 
  1.232000e+03   4.117338e-05 
  1.234000e+03   4.286824e-05 
  1.236000e+03   3.994105e-05 
  1.238000e+03   4.071177e-05 
  1.240000e+03   4.929328e-05 
  1.242000e+03   4.641718e-05 
  1.244000e+03   4.805376e-05 
  1.246000e+03   4.681665e-05 
  1.248000e+03   4.623955e-05 
  1.250000e+03   4.510820e-05 
  1.252000e+03   4.917254e-05 
  1.254000e+03   4.875443e-05 
  1.256000e+03   4.347445e-05 
  1.258000e+03   4.432979e-05 
  1.260000e+03   4.360080e-05 
  1.262000e+03   4.553756e-05 
  1.264000e+03   4.866469e-05 
  1.266000e+03   4.850924e-05 
  1.268000e+03   4.619833e-05 
  1.270000e+03   4.419571e-05 
  1.272000e+03   4.646982e-05 
  1.274000e+03   4.740954e-05 
  1.276000e+03   5.087425e-05 
  1.278000e+03   4.724852e-05 
  1.280000e+03   4.666992e-05 
  1.282000e+03   5.034090e-05 
  1.284000e+03   4.819427e-05 
  1.286000e+03   5.094479e-05 
  1.288000e+03   5.033430e-05 
  1.290000e+03   4.429369e-05 
  1.292000e+03   4.519040e-05 
  1.294000e+03   4.794433e-05 
  1.296000e+03   4.948505e-05 
  1.298000e+03   4.749572e-05 
  1.300000e+03   4.870160e-05 
  1.302000e+03   4.539025e-05 
  1.304000e+03   4.855862e-05 
  1.306000e+03   5.065121e-05 
  1.308000e+03   5.147253e-05 
  1.310000e+03   5.095946e-05 
  1.312000e+03   4.757939e-05 
  1.314000e+03   4.653056e-05 
  1.316000e+03   5.545878e-05 
  1.318000e+03   5.522573e-05 
  1.320000e+03   4.702313e-05 
  1.322000e+03   4.824988e-05 
  1.324000e+03   4.987778e-05 
  1.326000e+03   4.804810e-05 
  1.328000e+03   4.784848e-05 
  1.330000e+03   5.112630e-05 
  1.332000e+03   5.213685e-05 
  1.334000e+03   5.345947e-05 
  1.336000e+03   5.116941e-05 
  1.338000e+03   4.831246e-05 
  1.340000e+03   4.912708e-05 
  1.342000e+03   5.289524e-05 
  1.344000e+03   5.357315e-05 
  1.346000e+03   4.769514e-05 
  1.348000e+03   4.602004e-05 
  1.350000e+03   5.058943e-05 
  1.352000e+03   5.959407e-05 
  1.354000e+03   5.345929e-05 
  1.356000e+03   5.235683e-05 
  1.358000e+03   4.974418e-05 
  1.360000e+03   5.097799e-05 
  1.362000e+03   5.274731e-05 
  1.364000e+03   5.130825e-05 
  1.366000e+03   4.909373e-05 
  1.368000e+03   5.454286e-05 
  1.370000e+03   5.400852e-05 
  1.372000e+03   5.460356e-05 
  1.374000e+03   5.243760e-05 
  1.376000e+03   5.478540e-05 
  1.378000e+03   5.542967e-05 
  1.380000e+03   5.066515e-05 
  1.382000e+03   4.987601e-05 
  1.384000e+03   5.093663e-05 
  1.386000e+03   5.253741e-05 
  1.388000e+03   5.369096e-05 
  1.390000e+03   5.241616e-05 
  1.392000e+03   5.066425e-05 
  1.394000e+03   5.783487e-05 
  1.396000e+03   5.473951e-05 
  1.398000e+03   4.968288e-05 
  1.400000e+03   5.155096e-05 
  1.402000e+03   5.701696e-05 
  1.404000e+03   5.913410e-05 
  1.406000e+03   6.012276e-05 
  1.408000e+03   5.193635e-05 
  1.410000e+03   4.859978e-05 
  1.412000e+03   5.591426e-05 
  1.414000e+03   5.563465e-05 
  1.416000e+03   5.752354e-05 
  1.418000e+03   6.274457e-05 
  1.420000e+03   5.926671e-05 
  1.422000e+03   6.163598e-05 
  1.424000e+03   6.260151e-05 
  1.426000e+03   5.337804e-05 
  1.428000e+03   4.968074e-05 
  1.430000e+03   5.300742e-05 
  1.432000e+03   5.094843e-05 
  1.434000e+03   5.484876e-05 
  1.436000e+03   5.138017e-05 
  1.438000e+03   5.761893e-05 
  1.440000e+03   6.120854e-05 
  1.442000e+03   5.608696e-05 
  1.444000e+03   5.519693e-05 
  1.446000e+03   5.462613e-05 
  1.448000e+03   5.725498e-05 
  1.450000e+03   5.968433e-05 
  1.452000e+03   5.736356e-05 
  1.454000e+03   5.306647e-05 
  1.456000e+03   5.405072e-05 
  1.458000e+03   5.376162e-05 
  1.460000e+03   5.748417e-05 
  1.462000e+03   5.643802e-05 
  1.464000e+03   5.332746e-05 
  1.466000e+03   5.602633e-05 
  1.468000e+03   5.499305e-05 
  1.470000e+03   5.582669e-05 
  1.472000e+03   5.019422e-05 
  1.474000e+03   5.355867e-05 
  1.476000e+03   5.581493e-05 
  1.478000e+03   6.055526e-05 
  1.480000e+03   5.856713e-05 
  1.482000e+03   5.182396e-05 
  1.484000e+03   5.142791e-05 
  1.486000e+03   4.975785e-05 
  1.488000e+03   5.447495e-05 
  1.490000e+03   6.310058e-05 
  1.492000e+03   6.255521e-05 
  1.494000e+03   5.587805e-05 
  1.496000e+03   5.666518e-05 
  1.498000e+03   6.201964e-05 
  1.500000e+03   5.582864e-05 
  1.502000e+03   5.947003e-05 
  1.504000e+03   5.302619e-05 
  1.506000e+03   5.640167e-05 
  1.508000e+03   5.265696e-05 
  1.510000e+03   6.247272e-05 
  1.512000e+03   6.356202e-05 
  1.514000e+03   5.969293e-05 
  1.516000e+03   5.155459e-05 
  1.518000e+03   5.325972e-05 
  1.520000e+03   5.934321e-05 
  1.522000e+03   5.825555e-05 
  1.524000e+03   5.961869e-05 
  1.526000e+03   5.949029e-05 
  1.528000e+03   5.709074e-05 
  1.530000e+03   6.255072e-05 
  1.532000e+03   5.867153e-05 
  1.534000e+03   5.382430e-05 
  1.536000e+03   5.736652e-05 
  1.538000e+03   5.963929e-05 
  1.540000e+03   6.094031e-05 
  1.542000e+03   5.958756e-05 
  1.544000e+03   5.604934e-05 
  1.546000e+03   5.806701e-05 
  1.548000e+03   6.218300e-05 
  1.550000e+03   6.566582e-05 
  1.552000e+03   6.448328e-05 
  1.554000e+03   6.591906e-05 
  1.556000e+03   6.104171e-05 
  1.558000e+03   6.722608e-05 
  1.560000e+03   7.515601e-05 
  1.562000e+03   6.934025e-05 
  1.564000e+03   6.350826e-05 
  1.566000e+03   6.603320e-05 
  1.568000e+03   6.785837e-05 
  1.570000e+03   6.353929e-05 
  1.572000e+03   5.978108e-05 
  1.574000e+03   5.593499e-05 
  1.576000e+03   6.466902e-05 
  1.578000e+03   6.644017e-05 
  1.580000e+03   6.666480e-05 
  1.582000e+03   6.884393e-05 
  1.584000e+03   6.990190e-05 
  1.586000e+03   6.447537e-05 
  1.588000e+03   5.465417e-05 
  1.590000e+03   5.765921e-05 
  1.592000e+03   6.164639e-05 
  1.594000e+03   6.488878e-05 
  1.596000e+03   6.337933e-05 
  1.598000e+03   6.359428e-05 
  1.600000e+03   6.770078e-05 
