Input File: BN.78D
Measure Group: FFT
Measurement: FFT 1
Num of extracted Points: 401
Start Freq: -0 Hz
Span: 1.6 kHz
FFT Lines:  400 
Window: BMH
Averaging Mode: RMS
Averaging Type: Exp. / Cont.
Number of Avg:   73
Overload reject: Off

    X[Hz]      Vrms/Hz^(1/... 
  0.000000e+00   1.408560e-04 
  4.000000e+00   1.170532e-04 
  8.000000e+00   7.405107e-05 
  1.200000e+01   4.599473e-05 
  1.600000e+01   3.083246e-05 
  2.000000e+01   2.246480e-05 
  2.400000e+01   2.051856e-05 
  2.800000e+01   1.801484e-05 
  3.200000e+01   1.524805e-05 
  3.600000e+01   1.434897e-05 
  4.000000e+01   1.427953e-05 
  4.400000e+01   1.332336e-05 
  4.800000e+01   1.326088e-05 
  5.200000e+01   4.847087e-05 
  5.600000e+01   1.638147e-04 
  6.000000e+01   2.409838e-04 
  6.400000e+01   1.653257e-04 
  6.800000e+01   5.136993e-05 
  7.200000e+01   1.388117e-05 
  7.600000e+01   1.144016e-05 
  8.000000e+01   1.090039e-05 
  8.400000e+01   1.182082e-05 
  8.800000e+01   1.276992e-05 
  9.200000e+01   1.270838e-05 
  9.600000e+01   1.188530e-05 
  1.000000e+02   1.107173e-05 
  1.040000e+02   1.086633e-05 
  1.080000e+02   1.071875e-05 
  1.120000e+02   1.194880e-05 
  1.160000e+02   1.372669e-05 
  1.200000e+02   1.332865e-05 
  1.240000e+02   1.176453e-05 
  1.280000e+02   1.124560e-05 
  1.320000e+02   1.074745e-05 
  1.360000e+02   1.060616e-05 
  1.400000e+02   1.107650e-05 
  1.440000e+02   1.187481e-05 
  1.480000e+02   1.218404e-05 
  1.520000e+02   1.220803e-05 
  1.560000e+02   1.147681e-05 
  1.600000e+02   1.063260e-05 
  1.640000e+02   1.029035e-05 
  1.680000e+02   1.004148e-05 
  1.720000e+02   1.389794e-05 
  1.760000e+02   3.530997e-05 
  1.800000e+02   5.086810e-05 
  1.840000e+02   3.578489e-05 
  1.880000e+02   1.535825e-05 
  1.920000e+02   1.240673e-05 
  1.960000e+02   1.298041e-05 
  2.000000e+02   1.258281e-05 
  2.040000e+02   1.138558e-05 
  2.080000e+02   1.108523e-05 
  2.120000e+02   1.110012e-05 
  2.160000e+02   1.090446e-05 
  2.200000e+02   1.033576e-05 
  2.240000e+02   1.010555e-05 
  2.280000e+02   1.096091e-05 
  2.320000e+02   1.241335e-05 
  2.360000e+02   1.223645e-05 
  2.400000e+02   1.195055e-05 
  2.440000e+02   1.140114e-05 
  2.480000e+02   1.359467e-05 
  2.520000e+02   2.864435e-05 
  2.560000e+02   3.962262e-05 
  2.600000e+02   2.698023e-05 
  2.640000e+02   1.222931e-05 
  2.680000e+02   1.078009e-05 
  2.720000e+02   1.095557e-05 
  2.760000e+02   1.012787e-05 
  2.800000e+02   9.255115e-06 
  2.840000e+02   9.202173e-06 
  2.880000e+02   9.918867e-06 
  2.920000e+02   1.224913e-05 
  2.960000e+02   2.293263e-05 
  3.000000e+02   3.139775e-05 
  3.040000e+02   2.274212e-05 
  3.080000e+02   1.242061e-05 
  3.120000e+02   1.127989e-05 
  3.160000e+02   1.082941e-05 
  3.200000e+02   1.005744e-05 
  3.240000e+02   9.792797e-06 
  3.280000e+02   9.581120e-06 
  3.320000e+02   9.046909e-06 
  3.360000e+02   8.919054e-06 
  3.400000e+02   9.008699e-06 
  3.440000e+02   9.888645e-06 
  3.480000e+02   1.061735e-05 
  3.520000e+02   1.103564e-05 
  3.560000e+02   1.106956e-05 
  3.600000e+02   1.027986e-05 
  3.640000e+02   1.014708e-05 
  3.680000e+02   1.081135e-05 
  3.720000e+02   1.107422e-05 
  3.760000e+02   1.094731e-05 
  3.800000e+02   1.063285e-05 
  3.840000e+02   1.092144e-05 
  3.880000e+02   1.080774e-05 
  3.920000e+02   1.119892e-05 
  3.960000e+02   1.338194e-05 
  4.000000e+02   1.325622e-05 
  4.040000e+02   1.125205e-05 
  4.080000e+02   1.026846e-05 
  4.120000e+02   1.058005e-05 
  4.160000e+02   1.444331e-05 
  4.200000e+02   1.746649e-05 
  4.240000e+02   1.350466e-05 
  4.280000e+02   9.385111e-06 
  4.320000e+02   8.919696e-06 
  4.360000e+02   9.093218e-06 
  4.400000e+02   9.906614e-06 
  4.440000e+02   1.019294e-05 
  4.480000e+02   9.935166e-06 
  4.520000e+02   1.009310e-05 
  4.560000e+02   1.036134e-05 
  4.600000e+02   1.035826e-05 
  4.640000e+02   9.616190e-06 
  4.680000e+02   9.485613e-06 
  4.720000e+02   9.993182e-06 
  4.760000e+02   1.059648e-05 
  4.800000e+02   1.006299e-05 
  4.840000e+02   9.388932e-06 
  4.880000e+02   9.569289e-06 
  4.920000e+02   1.020534e-05 
  4.960000e+02   9.491883e-06 
  5.000000e+02   8.916416e-06 
  5.040000e+02   1.076936e-05 
  5.080000e+02   2.394877e-05 
  5.120000e+02   3.451717e-05 
  5.160000e+02   2.522219e-05 
  5.200000e+02   1.230477e-05 
  5.240000e+02   9.692769e-06 
  5.280000e+02   9.191660e-06 
  5.320000e+02   9.707999e-06 
  5.360000e+02   1.521159e-05 
  5.400000e+02   2.106473e-05 
  5.440000e+02   1.714805e-05 
  5.480000e+02   1.155276e-05 
  5.520000e+02   1.021582e-05 
  5.560000e+02   9.141598e-06 
  5.600000e+02   8.433288e-06 
  5.640000e+02   8.584775e-06 
  5.680000e+02   9.364530e-06 
  5.720000e+02   9.848138e-06 
  5.760000e+02   1.044127e-05 
  5.800000e+02   1.067725e-05 
  5.840000e+02   1.010722e-05 
  5.880000e+02   1.081068e-05 
  5.920000e+02   1.337309e-05 
  5.960000e+02   1.370805e-05 
  6.000000e+02   1.124323e-05 
  6.040000e+02   9.131785e-06 
  6.080000e+02   8.969475e-06 
  6.120000e+02   8.623168e-06 
  6.160000e+02   8.788817e-06 
  6.200000e+02   9.226327e-06 
  6.240000e+02   9.093231e-06 
  6.280000e+02   8.983126e-06 
  6.320000e+02   9.518048e-06 
  6.360000e+02   9.490264e-06 
  6.400000e+02   8.939482e-06 
  6.440000e+02   8.989595e-06 
  6.480000e+02   8.476088e-06 
  6.520000e+02   8.052791e-06 
  6.560000e+02   9.035918e-06 
  6.600000e+02   9.231643e-06 
  6.640000e+02   8.051781e-06 
  6.680000e+02   7.951251e-06 
  6.720000e+02   8.507982e-06 
  6.760000e+02   8.862777e-06 
  6.800000e+02   9.084700e-06 
  6.840000e+02   8.968815e-06 
  6.880000e+02   9.256564e-06 
  6.920000e+02   9.271001e-06 
  6.960000e+02   8.939707e-06 
  7.000000e+02   8.752334e-06 
  7.040000e+02   8.741664e-06 
  7.080000e+02   8.641317e-06 
  7.120000e+02   8.400556e-06 
  7.160000e+02   9.098627e-06 
  7.200000e+02   9.482323e-06 
  7.240000e+02   8.951469e-06 
  7.280000e+02   8.951938e-06 
  7.320000e+02   8.928118e-06 
  7.360000e+02   8.641394e-06 
  7.400000e+02   8.361007e-06 
  7.440000e+02   8.926639e-06 
  7.480000e+02   9.162315e-06 
  7.520000e+02   8.647658e-06 
  7.560000e+02   7.880589e-06 
  7.600000e+02   8.765250e-06 
  7.640000e+02   1.731304e-05 
  7.680000e+02   2.508003e-05 
  7.720000e+02   1.888177e-05 
  7.760000e+02   1.183532e-05 
  7.800000e+02   1.197701e-05 
  7.840000e+02   1.067034e-05 
  7.880000e+02   1.060942e-05 
  7.920000e+02   1.125548e-05 
  7.960000e+02   1.082232e-05 
  8.000000e+02   9.659921e-06 
  8.040000e+02   8.167141e-06 
  8.080000e+02   8.198568e-06 
  8.120000e+02   8.424217e-06 
  8.160000e+02   8.716739e-06 
  8.200000e+02   8.671301e-06 
  8.240000e+02   8.481360e-06 
  8.280000e+02   8.140687e-06 
  8.320000e+02   8.235521e-06 
  8.360000e+02   8.346154e-06 
  8.400000e+02   7.950717e-06 
  8.440000e+02   8.429741e-06 
  8.480000e+02   8.949870e-06 
  8.520000e+02   8.682488e-06 
  8.560000e+02   9.016201e-06 
  8.600000e+02   8.953878e-06 
  8.640000e+02   8.243420e-06 
  8.680000e+02   7.402203e-06 
  8.720000e+02   6.675375e-06 
  8.760000e+02   7.543489e-06 
  8.800000e+02   8.671579e-06 
  8.840000e+02   9.105394e-06 
  8.880000e+02   8.632313e-06 
  8.920000e+02   8.666795e-06 
  8.960000e+02   1.045863e-05 
  9.000000e+02   1.246560e-05 
  9.040000e+02   1.039376e-05 
  9.080000e+02   8.558790e-06 
  9.120000e+02   8.439251e-06 
  9.160000e+02   8.080632e-06 
  9.200000e+02   8.144755e-06 
  9.240000e+02   8.992141e-06 
  9.280000e+02   9.235536e-06 
  9.320000e+02   7.928697e-06 
  9.360000e+02   7.613899e-06 
  9.400000e+02   8.320902e-06 
  9.440000e+02   8.548045e-06 
  9.480000e+02   8.411355e-06 
  9.520000e+02   7.787326e-06 
  9.560000e+02   7.308206e-06 
  9.600000e+02   7.142620e-06 
  9.640000e+02   7.272324e-06 
  9.680000e+02   7.212864e-06 
  9.720000e+02   7.759708e-06 
  9.760000e+02   7.984563e-06 
  9.800000e+02   7.964511e-06 
  9.840000e+02   9.356589e-06 
  9.880000e+02   1.046462e-05 
  9.920000e+02   1.015538e-05 
  9.960000e+02   1.055421e-05 
  1.000000e+03   9.228148e-06 
  1.004000e+03   7.613464e-06 
  1.008000e+03   7.439762e-06 
  1.012000e+03   8.054377e-06 
  1.016000e+03   1.364496e-05 
  1.020000e+03   2.282416e-05 
  1.024000e+03   2.372890e-05 
  1.028000e+03   1.512697e-05 
  1.032000e+03   8.365570e-06 
  1.036000e+03   7.543381e-06 
  1.040000e+03   7.656375e-06 
  1.044000e+03   7.988864e-06 
  1.048000e+03   7.711461e-06 
  1.052000e+03   7.104610e-06 
  1.056000e+03   6.798230e-06 
  1.060000e+03   7.525670e-06 
  1.064000e+03   8.160010e-06 
  1.068000e+03   7.683490e-06 
  1.072000e+03   6.955413e-06 
  1.076000e+03   7.227833e-06 
  1.080000e+03   6.959419e-06 
  1.084000e+03   6.491198e-06 
  1.088000e+03   7.308715e-06 
  1.092000e+03   7.894061e-06 
  1.096000e+03   7.647337e-06 
  1.100000e+03   7.638881e-06 
  1.104000e+03   7.820317e-06 
  1.108000e+03   7.834935e-06 
  1.112000e+03   7.820960e-06 
  1.116000e+03   7.618104e-06 
  1.120000e+03   7.402253e-06 
  1.124000e+03   6.980266e-06 
  1.128000e+03   7.274100e-06 
  1.132000e+03   8.000619e-06 
  1.136000e+03   9.194489e-06 
  1.140000e+03   1.029271e-05 
  1.144000e+03   9.259326e-06 
  1.148000e+03   7.807109e-06 
  1.152000e+03   7.336308e-06 
  1.156000e+03   7.477341e-06 
  1.160000e+03   7.066497e-06 
  1.164000e+03   6.952745e-06 
  1.168000e+03   7.322117e-06 
  1.172000e+03   7.284877e-06 
  1.176000e+03   7.053732e-06 
  1.180000e+03   7.603952e-06 
  1.184000e+03   8.974267e-06 
  1.188000e+03   8.698200e-06 
  1.192000e+03   8.695860e-06 
  1.196000e+03   1.009517e-05 
  1.200000e+03   9.331829e-06 
  1.204000e+03   7.480089e-06 
  1.208000e+03   6.488169e-06 
  1.212000e+03   6.639518e-06 
  1.216000e+03   7.096166e-06 
  1.220000e+03   7.243928e-06 
  1.224000e+03   7.191082e-06 
  1.228000e+03   7.003138e-06 
  1.232000e+03   6.746306e-06 
  1.236000e+03   6.494631e-06 
  1.240000e+03   6.546518e-06 
  1.244000e+03   7.044368e-06 
  1.248000e+03   7.878063e-06 
  1.252000e+03   8.038525e-06 
  1.256000e+03   7.609809e-06 
  1.260000e+03   7.630338e-06 
  1.264000e+03   8.055488e-06 
  1.268000e+03   8.559436e-06 
  1.272000e+03   9.189783e-06 
  1.276000e+03   1.225709e-05 
  1.280000e+03   1.495756e-05 
  1.284000e+03   1.188215e-05 
  1.288000e+03   9.597528e-06 
  1.292000e+03   9.722206e-06 
  1.296000e+03   9.132956e-06 
  1.300000e+03   8.623879e-06 
  1.304000e+03   8.682291e-06 
  1.308000e+03   8.442918e-06 
  1.312000e+03   7.903480e-06 
  1.316000e+03   7.393858e-06 
  1.320000e+03   7.417011e-06 
  1.324000e+03   7.196560e-06 
  1.328000e+03   6.687119e-06 
  1.332000e+03   7.004931e-06 
  1.336000e+03   7.724161e-06 
  1.340000e+03   8.154359e-06 
  1.344000e+03   8.884335e-06 
  1.348000e+03   9.893992e-06 
  1.352000e+03   1.010104e-05 
  1.356000e+03   9.709634e-06 
  1.360000e+03   8.766089e-06 
  1.364000e+03   8.187555e-06 
  1.368000e+03   8.370126e-06 
  1.372000e+03   8.431669e-06 
  1.376000e+03   8.243151e-06 
  1.380000e+03   8.999246e-06 
  1.384000e+03   9.586500e-06 
  1.388000e+03   8.032054e-06 
  1.392000e+03   7.220351e-06 
  1.396000e+03   7.980433e-06 
  1.400000e+03   7.973022e-06 
  1.404000e+03   7.457687e-06 
  1.408000e+03   6.759937e-06 
  1.412000e+03   6.505117e-06 
  1.416000e+03   6.935315e-06 
  1.420000e+03   7.182435e-06 
  1.424000e+03   7.217323e-06 
  1.428000e+03   6.932472e-06 
  1.432000e+03   6.603585e-06 
  1.436000e+03   6.819636e-06 
  1.440000e+03   7.269431e-06 
  1.444000e+03   7.650042e-06 
  1.448000e+03   7.183941e-06 
  1.452000e+03   6.443499e-06 
  1.456000e+03   6.425977e-06 
  1.460000e+03   6.556983e-06 
  1.464000e+03   6.457048e-06 
  1.468000e+03   6.703591e-06 
  1.472000e+03   7.080867e-06 
  1.476000e+03   6.939424e-06 
  1.480000e+03   6.840683e-06 
  1.484000e+03   6.774787e-06 
  1.488000e+03   6.990796e-06 
  1.492000e+03   7.029819e-06 
  1.496000e+03   6.751246e-06 
  1.500000e+03   7.144256e-06 
  1.504000e+03   6.822655e-06 
  1.508000e+03   6.049322e-06 
  1.512000e+03   6.369279e-06 
  1.516000e+03   7.023933e-06 
  1.520000e+03   7.304326e-06 
  1.524000e+03   7.004067e-06 
  1.528000e+03   6.651188e-06 
  1.532000e+03   8.638416e-06 
  1.536000e+03   1.056008e-05 
  1.540000e+03   8.728693e-06 
  1.544000e+03   7.328174e-06 
  1.548000e+03   6.726899e-06 
  1.552000e+03   6.373054e-06 
  1.556000e+03   6.308727e-06 
  1.560000e+03   6.116742e-06 
  1.564000e+03   5.813609e-06 
  1.568000e+03   5.712767e-06 
  1.572000e+03   5.693849e-06 
  1.576000e+03   5.966540e-06 
  1.580000e+03   7.063816e-06 
  1.584000e+03   7.249417e-06 
  1.588000e+03   6.743262e-06 
  1.592000e+03   6.686774e-06 
  1.596000e+03   6.540537e-06 
  1.600000e+03   6.268998e-06 
