Input File: BNC.78D
Measure Group: FFT
Measurement: FFT 1
Num of extracted Points: 401
Start Freq: -0 Hz
Span: 1.6 kHz
FFT Lines:  400 
Window: BMH
Averaging Mode: RMS
Averaging Type: Exp. / Cont.
Number of Avg:  100
Overload reject: Off

    X[Hz]      Vrms/Hz^(1/... 
  0.000000e+00   8.032589e-04 
  4.000000e+00   5.920061e-04 
  8.000000e+00   2.977407e-04 
  1.200000e+01   2.125928e-04 
  1.600000e+01   1.959675e-04 
  2.000000e+01   1.909199e-04 
  2.400000e+01   1.890989e-04 
  2.800000e+01   1.899975e-04 
  3.200000e+01   1.854400e-04 
  3.600000e+01   1.743850e-04 
  4.000000e+01   1.723405e-04 
  4.400000e+01   1.814699e-04 
  4.800000e+01   1.825328e-04 
  5.200000e+01   7.109562e-04 
  5.600000e+01   2.476233e-03 
  6.000000e+01   3.665622e-03 
  6.400000e+01   2.506780e-03 
  6.800000e+01   7.396119e-04 
  7.200000e+01   1.771893e-04 
  7.600000e+01   1.666698e-04 
  8.000000e+01   1.706874e-04 
  8.400000e+01   1.673704e-04 
  8.800000e+01   1.694189e-04 
  9.200000e+01   1.722342e-04 
  9.600000e+01   1.700493e-04 
  1.000000e+02   1.643699e-04 
  1.040000e+02   1.628333e-04 
  1.080000e+02   1.810261e-04 
  1.120000e+02   2.989870e-04 
  1.160000e+02   3.977206e-04 
  1.200000e+02   2.981283e-04 
  1.240000e+02   1.932188e-04 
  1.280000e+02   1.748041e-04 
  1.320000e+02   1.662684e-04 
  1.360000e+02   1.632140e-04 
  1.400000e+02   1.661947e-04 
  1.440000e+02   1.700555e-04 
  1.480000e+02   1.708084e-04 
  1.520000e+02   1.617243e-04 
  1.560000e+02   1.545251e-04 
  1.600000e+02   1.575371e-04 
  1.640000e+02   1.581202e-04 
  1.680000e+02   1.612752e-04 
  1.720000e+02   1.675804e-04 
  1.760000e+02   1.871868e-04 
  1.800000e+02   2.071537e-04 
  1.840000e+02   1.901804e-04 
  1.880000e+02   1.718880e-04 
  1.920000e+02   1.758330e-04 
  1.960000e+02   1.880545e-04 
  2.000000e+02   1.837720e-04 
  2.040000e+02   1.669909e-04 
  2.080000e+02   1.611263e-04 
  2.120000e+02   1.628689e-04 
  2.160000e+02   1.611510e-04 
  2.200000e+02   1.598153e-04 
  2.240000e+02   1.746175e-04 
  2.280000e+02   2.639503e-04 
  2.320000e+02   3.330718e-04 
  2.360000e+02   2.522098e-04 
  2.400000e+02   1.699299e-04 
  2.440000e+02   1.583133e-04 
  2.480000e+02   1.599845e-04 
  2.520000e+02   1.601086e-04 
  2.560000e+02   1.529386e-04 
  2.600000e+02   1.507347e-04 
  2.640000e+02   1.590375e-04 
  2.680000e+02   1.618890e-04 
  2.720000e+02   1.622256e-04 
  2.760000e+02   1.571515e-04 
  2.800000e+02   1.606495e-04 
  2.840000e+02   1.664244e-04 
  2.880000e+02   1.606861e-04 
  2.920000e+02   1.725260e-04 
  2.960000e+02   3.495337e-04 
  3.000000e+02   4.987422e-04 
  3.040000e+02   3.702662e-04 
  3.080000e+02   1.927165e-04 
  3.120000e+02   1.620202e-04 
  3.160000e+02   1.657476e-04 
  3.200000e+02   1.577187e-04 
  3.240000e+02   1.550775e-04 
  3.280000e+02   1.617179e-04 
  3.320000e+02   1.671268e-04 
  3.360000e+02   1.595821e-04 
  3.400000e+02   1.478173e-04 
  3.440000e+02   1.520488e-04 
  3.480000e+02   1.542030e-04 
  3.520000e+02   1.571614e-04 
  3.560000e+02   1.600153e-04 
  3.600000e+02   1.583071e-04 
  3.640000e+02   1.558609e-04 
  3.680000e+02   1.464707e-04 
  3.720000e+02   1.360601e-04 
  3.760000e+02   1.421439e-04 
  3.800000e+02   1.604690e-04 
  3.840000e+02   1.681258e-04 
  3.880000e+02   1.625502e-04 
  3.920000e+02   1.599237e-04 
  3.960000e+02   1.714944e-04 
  4.000000e+02   1.717154e-04 
  4.040000e+02   1.653571e-04 
  4.080000e+02   1.612009e-04 
  4.120000e+02   1.571862e-04 
  4.160000e+02   1.639732e-04 
  4.200000e+02   1.704397e-04 
  4.240000e+02   1.551645e-04 
  4.280000e+02   1.466175e-04 
  4.320000e+02   1.440960e-04 
  4.360000e+02   1.427353e-04 
  4.400000e+02   1.423032e-04 
  4.440000e+02   1.536130e-04 
  4.480000e+02   1.568120e-04 
  4.520000e+02   1.500404e-04 
  4.560000e+02   1.523123e-04 
  4.600000e+02   1.899527e-04 
  4.640000e+02   2.183580e-04 
  4.680000e+02   1.812323e-04 
  4.720000e+02   1.525031e-04 
  4.760000e+02   1.501238e-04 
  4.800000e+02   1.498761e-04 
  4.840000e+02   1.451515e-04 
  4.880000e+02   1.422596e-04 
  4.920000e+02   1.406043e-04 
  4.960000e+02   1.433921e-04 
  5.000000e+02   1.475867e-04 
  5.040000e+02   1.465639e-04 
  5.080000e+02   1.429155e-04 
  5.120000e+02   1.407190e-04 
  5.160000e+02   1.380070e-04 
  5.200000e+02   1.370982e-04 
  5.240000e+02   1.425724e-04 
  5.280000e+02   1.532362e-04 
  5.320000e+02   1.529873e-04 
  5.360000e+02   1.584275e-04 
  5.400000e+02   1.618100e-04 
  5.440000e+02   1.435851e-04 
  5.480000e+02   1.374333e-04 
  5.520000e+02   1.379514e-04 
  5.560000e+02   1.412064e-04 
  5.600000e+02   1.444818e-04 
  5.640000e+02   1.418240e-04 
  5.680000e+02   1.357778e-04 
  5.720000e+02   1.453064e-04 
  5.760000e+02   2.062189e-04 
  5.800000e+02   2.364551e-04 
  5.840000e+02   1.818047e-04 
  5.880000e+02   1.508024e-04 
  5.920000e+02   1.751083e-04 
  5.960000e+02   1.918786e-04 
  6.000000e+02   1.708854e-04 
  6.040000e+02   1.378167e-04 
  6.080000e+02   1.290209e-04 
  6.120000e+02   1.314334e-04 
  6.160000e+02   1.385676e-04 
  6.200000e+02   1.416642e-04 
  6.240000e+02   1.314664e-04 
  6.280000e+02   1.240508e-04 
  6.320000e+02   1.268043e-04 
  6.360000e+02   1.333182e-04 
  6.400000e+02   1.344386e-04 
  6.440000e+02   1.333301e-04 
  6.480000e+02   1.389857e-04 
  6.520000e+02   1.451437e-04 
  6.560000e+02   1.846221e-04 
  6.600000e+02   2.154022e-04 
  6.640000e+02   1.737704e-04 
  6.680000e+02   1.412292e-04 
  6.720000e+02   1.395692e-04 
  6.760000e+02   1.339861e-04 
  6.800000e+02   1.293884e-04 
  6.840000e+02   1.276472e-04 
  6.880000e+02   1.304456e-04 
  6.920000e+02   1.407090e-04 
  6.960000e+02   1.431788e-04 
  7.000000e+02   1.403700e-04 
  7.040000e+02   1.365520e-04 
  7.080000e+02   1.275993e-04 
  7.120000e+02   1.313172e-04 
  7.160000e+02   1.361406e-04 
  7.200000e+02   1.362645e-04 
  7.240000e+02   1.376719e-04 
  7.280000e+02   1.354839e-04 
  7.320000e+02   1.314233e-04 
  7.360000e+02   1.251774e-04 
  7.400000e+02   1.260746e-04 
  7.440000e+02   1.311673e-04 
  7.480000e+02   1.321577e-04 
  7.520000e+02   1.310956e-04 
  7.560000e+02   1.343296e-04 
  7.600000e+02   1.376154e-04 
  7.640000e+02   1.348707e-04 
  7.680000e+02   1.338742e-04 
  7.720000e+02   1.346394e-04 
  7.760000e+02   1.661417e-04 
  7.800000e+02   1.934802e-04 
  7.840000e+02   1.602867e-04 
  7.880000e+02   1.549598e-04 
  7.920000e+02   1.587952e-04 
  7.960000e+02   1.514037e-04 
  8.000000e+02   1.447610e-04 
  8.040000e+02   1.362977e-04 
  8.080000e+02   1.502239e-04 
  8.120000e+02   1.571321e-04 
  8.160000e+02   1.371631e-04 
  8.200000e+02   1.265561e-04 
  8.240000e+02   1.225511e-04 
  8.280000e+02   1.207603e-04 
  8.320000e+02   1.228811e-04 
  8.360000e+02   1.310027e-04 
  8.400000e+02   1.319713e-04 
  8.440000e+02   1.300221e-04 
  8.480000e+02   1.299774e-04 
  8.520000e+02   1.240659e-04 
  8.560000e+02   1.188486e-04 
  8.600000e+02   1.203447e-04 
  8.640000e+02   1.239417e-04 
  8.680000e+02   1.238825e-04 
  8.720000e+02   1.260941e-04 
  8.760000e+02   1.252456e-04 
  8.800000e+02   1.272818e-04 
  8.840000e+02   1.268236e-04 
  8.880000e+02   1.271292e-04 
  8.920000e+02   1.284276e-04 
  8.960000e+02   1.233147e-04 
  9.000000e+02   1.217597e-04 
  9.040000e+02   1.241138e-04 
  9.080000e+02   1.284436e-04 
  9.120000e+02   1.242167e-04 
  9.160000e+02   1.209790e-04 
  9.200000e+02   1.267318e-04 
  9.240000e+02   1.595498e-04 
  9.280000e+02   1.805584e-04 
  9.320000e+02   1.452507e-04 
  9.360000e+02   1.254696e-04 
  9.400000e+02   1.214015e-04 
  9.440000e+02   1.148331e-04 
  9.480000e+02   1.147419e-04 
  9.520000e+02   1.240509e-04 
  9.560000e+02   1.278748e-04 
  9.600000e+02   1.248029e-04 
  9.640000e+02   1.235521e-04 
  9.680000e+02   1.207463e-04 
  9.720000e+02   1.218808e-04 
  9.760000e+02   1.217812e-04 
  9.800000e+02   1.196261e-04 
  9.840000e+02   1.270383e-04 
  9.880000e+02   1.485609e-04 
  9.920000e+02   1.521467e-04 
  9.960000e+02   1.443717e-04 
  1.000000e+03   1.282600e-04 
  1.004000e+03   1.211149e-04 
  1.008000e+03   1.183443e-04 
  1.012000e+03   1.182237e-04 
  1.016000e+03   1.300306e-04 
  1.020000e+03   1.451242e-04 
  1.024000e+03   1.340069e-04 
  1.028000e+03   1.257621e-04 
  1.032000e+03   1.190155e-04 
  1.036000e+03   1.140511e-04 
  1.040000e+03   1.190396e-04 
  1.044000e+03   1.244453e-04 
  1.048000e+03   1.187371e-04 
  1.052000e+03   1.175161e-04 
  1.056000e+03   1.175494e-04 
  1.060000e+03   1.174509e-04 
  1.064000e+03   1.160942e-04 
  1.068000e+03   1.136142e-04 
  1.072000e+03   1.134829e-04 
  1.076000e+03   1.191900e-04 
  1.080000e+03   1.206475e-04 
  1.084000e+03   1.205368e-04 
  1.088000e+03   1.209769e-04 
  1.092000e+03   1.151965e-04 
  1.096000e+03   1.139232e-04 
  1.100000e+03   1.198133e-04 
  1.104000e+03   1.224833e-04 
  1.108000e+03   1.154366e-04 
  1.112000e+03   1.132283e-04 
  1.116000e+03   1.144935e-04 
  1.120000e+03   1.158793e-04 
  1.124000e+03   1.183139e-04 
  1.128000e+03   1.196800e-04 
  1.132000e+03   1.155042e-04 
  1.136000e+03   1.247717e-04 
  1.140000e+03   1.335306e-04 
  1.144000e+03   1.234639e-04 
  1.148000e+03   1.215565e-04 
  1.152000e+03   1.216607e-04 
  1.156000e+03   1.295823e-04 
  1.160000e+03   1.425931e-04 
  1.164000e+03   1.305805e-04 
  1.168000e+03   1.172312e-04 
  1.172000e+03   1.136499e-04 
  1.176000e+03   1.177309e-04 
  1.180000e+03   1.225561e-04 
  1.184000e+03   1.266896e-04 
  1.188000e+03   1.238418e-04 
  1.192000e+03   1.148005e-04 
  1.196000e+03   1.309198e-04 
  1.200000e+03   1.274771e-04 
  1.204000e+03   1.107271e-04 
  1.208000e+03   1.070746e-04 
  1.212000e+03   1.131511e-04 
  1.216000e+03   1.135472e-04 
  1.220000e+03   1.122934e-04 
  1.224000e+03   1.136541e-04 
  1.228000e+03   1.146934e-04 
  1.232000e+03   1.162120e-04 
  1.236000e+03   1.195777e-04 
  1.240000e+03   1.206725e-04 
  1.244000e+03   1.193826e-04 
  1.248000e+03   1.199518e-04 
  1.252000e+03   1.178382e-04 
  1.256000e+03   1.097382e-04 
  1.260000e+03   1.151442e-04 
  1.264000e+03   1.282429e-04 
  1.268000e+03   1.412612e-04 
  1.272000e+03   1.703336e-04 
  1.276000e+03   1.835152e-04 
  1.280000e+03   1.601997e-04 
  1.284000e+03   1.460712e-04 
  1.288000e+03   1.496360e-04 
  1.292000e+03   1.545757e-04 
  1.296000e+03   1.443735e-04 
  1.300000e+03   1.322114e-04 
  1.304000e+03   1.252435e-04 
  1.308000e+03   1.185507e-04 
  1.312000e+03   1.202925e-04 
  1.316000e+03   1.273858e-04 
  1.320000e+03   1.217065e-04 
  1.324000e+03   1.108583e-04 
  1.328000e+03   1.136219e-04 
  1.332000e+03   1.161788e-04 
  1.336000e+03   1.230003e-04 
  1.340000e+03   1.453119e-04 
  1.344000e+03   1.648457e-04 
  1.348000e+03   1.717041e-04 
  1.352000e+03   1.615274e-04 
  1.356000e+03   1.453840e-04 
  1.360000e+03   1.355009e-04 
  1.364000e+03   1.347990e-04 
  1.368000e+03   1.287101e-04 
  1.372000e+03   1.290823e-04 
  1.376000e+03   1.306284e-04 
  1.380000e+03   1.265366e-04 
  1.384000e+03   1.306947e-04 
  1.388000e+03   1.291306e-04 
  1.392000e+03   1.301455e-04 
  1.396000e+03   1.254481e-04 
  1.400000e+03   1.142561e-04 
  1.404000e+03   1.072686e-04 
  1.408000e+03   1.070379e-04 
  1.412000e+03   1.081110e-04 
  1.416000e+03   1.081888e-04 
  1.420000e+03   1.064326e-04 
  1.424000e+03   1.048493e-04 
  1.428000e+03   1.009584e-04 
  1.432000e+03   1.046896e-04 
  1.436000e+03   1.057589e-04 
  1.440000e+03   1.054068e-04 
  1.444000e+03   1.090846e-04 
  1.448000e+03   1.104557e-04 
  1.452000e+03   1.066868e-04 
  1.456000e+03   1.051972e-04 
  1.460000e+03   1.076815e-04 
  1.464000e+03   1.079093e-04 
  1.468000e+03   1.056625e-04 
  1.472000e+03   1.102993e-04 
  1.476000e+03   1.152102e-04 
  1.480000e+03   1.122842e-04 
  1.484000e+03   1.105048e-04 
  1.488000e+03   1.081387e-04 
  1.492000e+03   1.048706e-04 
  1.496000e+03   1.130977e-04 
  1.500000e+03   1.168167e-04 
  1.504000e+03   1.183245e-04 
  1.508000e+03   1.192120e-04 
  1.512000e+03   1.105375e-04 
  1.516000e+03   1.073493e-04 
  1.520000e+03   1.064750e-04 
  1.524000e+03   1.055784e-04 
  1.528000e+03   1.059211e-04 
  1.532000e+03   1.096061e-04 
  1.536000e+03   1.169181e-04 
  1.540000e+03   1.151721e-04 
  1.544000e+03   1.105663e-04 
  1.548000e+03   1.082320e-04 
  1.552000e+03   1.054391e-04 
  1.556000e+03   1.043342e-04 
  1.560000e+03   1.019722e-04 
  1.564000e+03   9.871736e-05 
  1.568000e+03   9.892350e-05 
  1.572000e+03   9.776251e-05 
  1.576000e+03   1.061441e-04 
  1.580000e+03   1.204591e-04 
  1.584000e+03   1.199639e-04 
  1.588000e+03   1.057936e-04 
  1.592000e+03   1.036099e-04 
  1.596000e+03   1.083410e-04 
  1.600000e+03   1.035468e-04 
