Input File: BNC.78D
Measure Group: FFT
Measurement: FFT 2
Num of extracted Points: 401
Start Freq: -0 Hz
Span: 800 Hz
FFT Lines:  400 
Window: BMH
Averaging Mode: RMS
Averaging Type: Exp. / Cont.
Number of Avg:   25
Overload reject: Off

    X[Hz]      Vrms/Hz^(1/... 
  0.000000e+00   3.329255e-01 
  2.000000e+00   2.265745e-01 
  4.000000e+00   6.556255e-02 
  6.000000e+00   5.425935e-03 
  8.000000e+00   2.991115e-05 
  1.000000e+01   2.292599e-05 
  1.200000e+01   2.096392e-05 
  1.400000e+01   1.913491e-05 
  1.600000e+01   1.640236e-05 
  1.800000e+01   1.717740e-05 
  2.000000e+01   1.678602e-05 
  2.200000e+01   1.641818e-05 
  2.400000e+01   1.653083e-05 
  2.600000e+01   1.630705e-05 
  2.800000e+01   1.594373e-05 
  3.000000e+01   1.438035e-05 
  3.200000e+01   1.356832e-05 
  3.400000e+01   1.433440e-05 
  3.600000e+01   1.502209e-05 
  3.800000e+01   1.560299e-05 
  4.000000e+01   1.613364e-05 
  4.200000e+01   1.807412e-05 
  4.400000e+01   1.885274e-05 
  4.600000e+01   1.988536e-05 
  4.800000e+01   2.108141e-05 
  5.000000e+01   2.423721e-05 
  5.200000e+01   2.552539e-05 
  5.400000e+01   2.274802e-05 
  5.600000e+01   1.968070e-05 
  5.800000e+01   2.698159e-05 
  6.000000e+01   3.479701e-05 
  6.200000e+01   2.549270e-05 
  6.400000e+01   1.538648e-05 
  6.600000e+01   1.495123e-05 
  6.800000e+01   1.486710e-05 
  7.000000e+01   1.385863e-05 
  7.200000e+01   1.376195e-05 
  7.400000e+01   1.424694e-05 
  7.600000e+01   1.408373e-05 
  7.800000e+01   1.379006e-05 
  8.000000e+01   1.315269e-05 
  8.200000e+01   1.254345e-05 
  8.400000e+01   1.265328e-05 
  8.600000e+01   1.329386e-05 
  8.800000e+01   1.477852e-05 
  9.000000e+01   1.578039e-05 
  9.200000e+01   1.487453e-05 
  9.400000e+01   1.409176e-05 
  9.600000e+01   1.513065e-05 
  9.800000e+01   1.481003e-05 
  1.000000e+02   1.375091e-05 
  1.020000e+02   1.432887e-05 
  1.040000e+02   1.492817e-05 
  1.060000e+02   1.530932e-05 
  1.080000e+02   1.474691e-05 
  1.100000e+02   1.304183e-05 
  1.120000e+02   1.249160e-05 
  1.140000e+02   2.119187e-05 
  1.160000e+02   5.969086e-05 
  1.180000e+02   9.918609e-05 
  1.200000e+02   1.023496e-04 
  1.220000e+02   8.672407e-05 
  1.240000e+02   7.478194e-05 
  1.260000e+02   6.648595e-05 
  1.280000e+02   6.045647e-05 
  1.300000e+02   5.421325e-05 
  1.320000e+02   5.116235e-05 
  1.340000e+02   5.359263e-05 
  1.360000e+02   6.532306e-05 
  1.380000e+02   1.134919e-04 
  1.400000e+02   2.187037e-04 
  1.420000e+02   2.735438e-04 
  1.440000e+02   1.973874e-04 
  1.460000e+02   9.667996e-05 
  1.480000e+02   5.188485e-05 
  1.500000e+02   2.961777e-05 
  1.520000e+02   1.664345e-05 
  1.540000e+02   1.384585e-05 
  1.560000e+02   1.397939e-05 
  1.580000e+02   1.399072e-05 
  1.600000e+02   1.345624e-05 
  1.620000e+02   1.398943e-05 
  1.640000e+02   1.399654e-05 
  1.660000e+02   1.398909e-05 
  1.680000e+02   1.482213e-05 
  1.700000e+02   1.405675e-05 
  1.720000e+02   1.382028e-05 
  1.740000e+02   1.511676e-05 
  1.760000e+02   2.162170e-05 
  1.780000e+02   5.323029e-05 
  1.800000e+02   7.584588e-05 
  1.820000e+02   5.191383e-05 
  1.840000e+02   1.969453e-05 
  1.860000e+02   1.379044e-05 
  1.880000e+02   1.401890e-05 
  1.900000e+02   1.525445e-05 
  1.920000e+02   1.518438e-05 
  1.940000e+02   1.589502e-05 
  1.960000e+02   1.827132e-05 
  1.980000e+02   1.998822e-05 
  2.000000e+02   1.771850e-05 
  2.020000e+02   1.521427e-05 
  2.040000e+02   1.372124e-05 
  2.060000e+02   1.199490e-05 
  2.080000e+02   1.337900e-05 
  2.100000e+02   1.528214e-05 
  2.120000e+02   1.526530e-05 
  2.140000e+02   1.485661e-05 
  2.160000e+02   1.444791e-05 
  2.180000e+02   1.371913e-05 
  2.200000e+02   1.324056e-05 
  2.220000e+02   1.229415e-05 
  2.240000e+02   1.166347e-05 
  2.260000e+02   1.284094e-05 
  2.280000e+02   1.345634e-05 
  2.300000e+02   1.346823e-05 
  2.320000e+02   1.351269e-05 
  2.340000e+02   1.470693e-05 
  2.360000e+02   1.760230e-05 
  2.380000e+02   1.989059e-05 
  2.400000e+02   2.019643e-05 
  2.420000e+02   1.778227e-05 
  2.440000e+02   1.737736e-05 
  2.460000e+02   1.859111e-05 
  2.480000e+02   1.914754e-05 
  2.500000e+02   1.774950e-05 
  2.520000e+02   1.606674e-05 
  2.540000e+02   1.591814e-05 
  2.560000e+02   1.597543e-05 
  2.580000e+02   1.677214e-05 
  2.600000e+02   1.895673e-05 
  2.620000e+02   1.997640e-05 
  2.640000e+02   2.060840e-05 
  2.660000e+02   2.098226e-05 
  2.680000e+02   2.122996e-05 
  2.700000e+02   2.099285e-05 
  2.720000e+02   2.084054e-05 
  2.740000e+02   2.072615e-05 
  2.760000e+02   1.968710e-05 
  2.780000e+02   1.733771e-05 
  2.800000e+02   1.510831e-05 
  2.820000e+02   1.508089e-05 
  2.840000e+02   1.549438e-05 
  2.860000e+02   1.472162e-05 
  2.880000e+02   1.371892e-05 
  2.900000e+02   1.387551e-05 
  2.920000e+02   1.384833e-05 
  2.940000e+02   1.422520e-05 
  2.960000e+02   1.697870e-05 
  2.980000e+02   3.533313e-05 
  3.000000e+02   4.983137e-05 
  3.020000e+02   3.832272e-05 
  3.040000e+02   2.984935e-05 
  3.060000e+02   3.243002e-05 
  3.080000e+02   2.799064e-05 
  3.100000e+02   2.126176e-05 
  3.120000e+02   1.711444e-05 
  3.140000e+02   1.446236e-05 
  3.160000e+02   1.447770e-05 
  3.180000e+02   1.529460e-05 
  3.200000e+02   1.430762e-05 
  3.220000e+02   1.277123e-05 
  3.240000e+02   1.284111e-05 
  3.260000e+02   1.318405e-05 
  3.280000e+02   1.361540e-05 
  3.300000e+02   1.472611e-05 
  3.320000e+02   1.484729e-05 
  3.340000e+02   1.366904e-05 
  3.360000e+02   1.305764e-05 
  3.380000e+02   1.463055e-05 
  3.400000e+02   1.560689e-05 
  3.420000e+02   1.632957e-05 
  3.440000e+02   1.775841e-05 
  3.460000e+02   1.975708e-05 
  3.480000e+02   2.086695e-05 
  3.500000e+02   2.437655e-05 
  3.520000e+02   3.554378e-05 
  3.540000e+02   4.423816e-05 
  3.560000e+02   4.286087e-05 
  3.580000e+02   3.817517e-05 
  3.600000e+02   2.925601e-05 
  3.620000e+02   1.972697e-05 
  3.640000e+02   1.518435e-05 
  3.660000e+02   1.391361e-05 
  3.680000e+02   1.490742e-05 
  3.700000e+02   1.554136e-05 
  3.720000e+02   1.403904e-05 
  3.740000e+02   1.384045e-05 
  3.760000e+02   1.410621e-05 
  3.780000e+02   1.393106e-05 
  3.800000e+02   1.585195e-05 
  3.820000e+02   1.780650e-05 
  3.840000e+02   1.690082e-05 
  3.860000e+02   1.661304e-05 
  3.880000e+02   1.623446e-05 
  3.900000e+02   1.441066e-05 
  3.920000e+02   1.479549e-05 
  3.940000e+02   1.767717e-05 
  3.960000e+02   1.783367e-05 
  3.980000e+02   2.051362e-05 
  4.000000e+02   2.140591e-05 
  4.020000e+02   1.852038e-05 
  4.040000e+02   1.465959e-05 
  4.060000e+02   1.456509e-05 
  4.080000e+02   1.548026e-05 
  4.100000e+02   1.464072e-05 
  4.120000e+02   1.359650e-05 
  4.140000e+02   1.318092e-05 
  4.160000e+02   1.390388e-05 
  4.180000e+02   1.838384e-05 
  4.200000e+02   2.370720e-05 
  4.220000e+02   2.078558e-05 
  4.240000e+02   1.704019e-05 
  4.260000e+02   1.821031e-05 
  4.280000e+02   1.907965e-05 
  4.300000e+02   1.755965e-05 
  4.320000e+02   1.638540e-05 
  4.340000e+02   1.558857e-05 
  4.360000e+02   1.343541e-05 
  4.380000e+02   1.209530e-05 
  4.400000e+02   1.216862e-05 
  4.420000e+02   1.313841e-05 
  4.440000e+02   1.380464e-05 
  4.460000e+02   1.338753e-05 
  4.480000e+02   1.324874e-05 
  4.500000e+02   1.311200e-05 
  4.520000e+02   1.255350e-05 
  4.540000e+02   1.236342e-05 
  4.560000e+02   1.227508e-05 
  4.580000e+02   1.217059e-05 
  4.600000e+02   1.255674e-05 
  4.620000e+02   1.374470e-05 
  4.640000e+02   1.462414e-05 
  4.660000e+02   1.479382e-05 
  4.680000e+02   1.613484e-05 
  4.700000e+02   1.984279e-05 
  4.720000e+02   2.549317e-05 
  4.740000e+02   2.851549e-05 
  4.760000e+02   2.760134e-05 
  4.780000e+02   2.448062e-05 
  4.800000e+02   2.092655e-05 
  4.820000e+02   1.777985e-05 
  4.840000e+02   1.627574e-05 
  4.860000e+02   1.665293e-05 
  4.880000e+02   1.657836e-05 
  4.900000e+02   1.619195e-05 
  4.920000e+02   1.510334e-05 
  4.940000e+02   1.348392e-05 
  4.960000e+02   1.428590e-05 
  4.980000e+02   1.585331e-05 
  5.000000e+02   1.561898e-05 
  5.020000e+02   1.628056e-05 
  5.040000e+02   1.823474e-05 
  5.060000e+02   1.667667e-05 
  5.080000e+02   1.486749e-05 
  5.100000e+02   1.360400e-05 
  5.120000e+02   1.445264e-05 
  5.140000e+02   1.712398e-05 
  5.160000e+02   1.812371e-05 
  5.180000e+02   1.752714e-05 
  5.200000e+02   1.748805e-05 
  5.220000e+02   1.706916e-05 
  5.240000e+02   1.603663e-05 
  5.260000e+02   1.439085e-05 
  5.280000e+02   1.380799e-05 
  5.300000e+02   1.330202e-05 
  5.320000e+02   1.332402e-05 
  5.340000e+02   1.422634e-05 
  5.360000e+02   1.512439e-05 
  5.380000e+02   1.829129e-05 
  5.400000e+02   2.246104e-05 
  5.420000e+02   1.842222e-05 
  5.440000e+02   1.463392e-05 
  5.460000e+02   1.449184e-05 
  5.480000e+02   1.429476e-05 
  5.500000e+02   1.336715e-05 
  5.520000e+02   1.307336e-05 
  5.540000e+02   1.333531e-05 
  5.560000e+02   1.278864e-05 
  5.580000e+02   1.322772e-05 
  5.600000e+02   1.384973e-05 
  5.620000e+02   1.345378e-05 
  5.640000e+02   1.358955e-05 
  5.660000e+02   1.416097e-05 
  5.680000e+02   1.406155e-05 
  5.700000e+02   1.429786e-05 
  5.720000e+02   1.537248e-05 
  5.740000e+02   1.662281e-05 
  5.760000e+02   1.673434e-05 
  5.780000e+02   1.515824e-05 
  5.800000e+02   1.406166e-05 
  5.820000e+02   1.419971e-05 
  5.840000e+02   1.506657e-05 
  5.860000e+02   1.597654e-05 
  5.880000e+02   1.773589e-05 
  5.900000e+02   2.104029e-05 
  5.920000e+02   2.052521e-05 
  5.940000e+02   1.661322e-05 
  5.960000e+02   1.949837e-05 
  5.980000e+02   2.066001e-05 
  6.000000e+02   1.606296e-05 
  6.020000e+02   1.322618e-05 
  6.040000e+02   1.410387e-05 
  6.060000e+02   1.404072e-05 
  6.080000e+02   1.281665e-05 
  6.100000e+02   1.461512e-05 
  6.120000e+02   1.637490e-05 
  6.140000e+02   1.555652e-05 
  6.160000e+02   1.467180e-05 
  6.180000e+02   1.405492e-05 
  6.200000e+02   1.301442e-05 
  6.220000e+02   1.411357e-05 
  6.240000e+02   1.529415e-05 
  6.260000e+02   1.655427e-05 
  6.280000e+02   1.722458e-05 
  6.300000e+02   1.589299e-05 
  6.320000e+02   1.385134e-05 
  6.340000e+02   1.344563e-05 
  6.360000e+02   1.413957e-05 
  6.380000e+02   1.471009e-05 
  6.400000e+02   1.395078e-05 
  6.420000e+02   1.300159e-05 
  6.440000e+02   1.285973e-05 
  6.460000e+02   1.404505e-05 
  6.480000e+02   1.520839e-05 
  6.500000e+02   1.651939e-05 
  6.520000e+02   1.731808e-05 
  6.540000e+02   1.523984e-05 
  6.560000e+02   1.541563e-05 
  6.580000e+02   2.223218e-05 
  6.600000e+02   2.839590e-05 
  6.620000e+02   2.177042e-05 
  6.640000e+02   1.574502e-05 
  6.660000e+02   1.511059e-05 
  6.680000e+02   1.357920e-05 
  6.700000e+02   1.478091e-05 
  6.720000e+02   1.615458e-05 
  6.740000e+02   1.503073e-05 
  6.760000e+02   1.370256e-05 
  6.780000e+02   1.457173e-05 
  6.800000e+02   1.414624e-05 
  6.820000e+02   1.368134e-05 
  6.840000e+02   1.403039e-05 
  6.860000e+02   1.439186e-05 
  6.880000e+02   1.484654e-05 
  6.900000e+02   1.408673e-05 
  6.920000e+02   1.408249e-05 
  6.940000e+02   1.373395e-05 
  6.960000e+02   1.351730e-05 
  6.980000e+02   1.445701e-05 
  7.000000e+02   1.576106e-05 
  7.020000e+02   1.696608e-05 
  7.040000e+02   1.976832e-05 
  7.060000e+02   2.025305e-05 
  7.080000e+02   2.035602e-05 
  7.100000e+02   1.989758e-05 
  7.120000e+02   1.725469e-05 
  7.140000e+02   1.477076e-05 
  7.160000e+02   1.439984e-05 
  7.180000e+02   1.456392e-05 
  7.200000e+02   1.418056e-05 
  7.220000e+02   1.462923e-05 
  7.240000e+02   1.415532e-05 
  7.260000e+02   1.413078e-05 
  7.280000e+02   1.542671e-05 
  7.300000e+02   1.578279e-05 
  7.320000e+02   1.440731e-05 
  7.340000e+02   1.475845e-05 
  7.360000e+02   1.639755e-05 
  7.380000e+02   1.532169e-05 
  7.400000e+02   1.500546e-05 
  7.420000e+02   1.559422e-05 
  7.440000e+02   1.500956e-05 
  7.460000e+02   1.477952e-05 
  7.480000e+02   1.402235e-05 
  7.500000e+02   1.378807e-05 
  7.520000e+02   1.351001e-05 
  7.540000e+02   1.279363e-05 
  7.560000e+02   1.312748e-05 
  7.580000e+02   1.375904e-05 
  7.600000e+02   1.389851e-05 
  7.620000e+02   1.458778e-05 
  7.640000e+02   1.477615e-05 
  7.660000e+02   1.455882e-05 
  7.680000e+02   1.464670e-05 
  7.700000e+02   1.332092e-05 
  7.720000e+02   1.301390e-05 
  7.740000e+02   1.368528e-05 
  7.760000e+02   1.491849e-05 
  7.780000e+02   1.601904e-05 
  7.800000e+02   1.638430e-05 
  7.820000e+02   1.483002e-05 
  7.840000e+02   1.507535e-05 
  7.860000e+02   1.724624e-05 
  7.880000e+02   1.781731e-05 
  7.900000e+02   1.462189e-05 
  7.920000e+02   1.314054e-05 
  7.940000e+02   1.604629e-05 
  7.960000e+02   1.927519e-05 
  7.980000e+02   1.883627e-05 
  8.000000e+02   1.765158e-05 
