Input File: BNI.78D
Measure Group: FFT
Measurement: FFT 1
Num of extracted Points: 801
Start Freq: -0 Hz
Span: 1.6 kHz
FFT Lines:  800 
Window: Hanning
Averaging Mode: RMS
Averaging Type: Exp. / Cont.
Number of Avg:   22
Overload reject: On

    X[Hz]      Vrms/Hz^(1/... 
  0.000000e+00   6.039357e-02 
  2.000000e+00   3.020725e-02 
  4.000000e+00   7.213293e-05 
  6.000000e+00   4.372041e-05 
  8.000000e+00   3.348733e-05 
  1.000000e+01   3.225743e-05 
  1.200000e+01   3.566056e-05 
  1.400000e+01   3.387629e-05 
  1.600000e+01   3.286163e-05 
  1.800000e+01   3.346620e-05 
  2.000000e+01   3.257825e-05 
  2.200000e+01   3.751173e-05 
  2.400000e+01   3.685647e-05 
  2.600000e+01   2.808415e-05 
  2.800000e+01   3.424558e-05 
  3.000000e+01   3.551175e-05 
  3.200000e+01   3.701611e-05 
  3.400000e+01   3.537630e-05 
  3.600000e+01   2.621227e-05 
  3.800000e+01   3.065066e-05 
  4.000000e+01   3.098630e-05 
  4.200000e+01   3.223247e-05 
  4.400000e+01   3.248615e-05 
  4.600000e+01   3.032832e-05 
  4.800000e+01   3.306549e-05 
  5.000000e+01   3.327513e-05 
  5.200000e+01   3.610522e-05 
  5.400000e+01   3.073625e-05 
  5.600000e+01   3.044005e-05 
  5.800000e+01   3.693723e-05 
  6.000000e+01   4.447480e-05 
  6.200000e+01   3.334626e-05 
  6.400000e+01   2.933501e-05 
  6.600000e+01   3.117809e-05 
  6.800000e+01   2.960203e-05 
  7.000000e+01   2.971081e-05 
  7.200000e+01   3.078186e-05 
  7.400000e+01   3.075497e-05 
  7.600000e+01   3.366116e-05 
  7.800000e+01   3.397380e-05 
  8.000000e+01   3.049483e-05 
  8.200000e+01   2.839849e-05 
  8.400000e+01   2.984836e-05 
  8.600000e+01   3.183508e-05 
  8.800000e+01   3.231330e-05 
  9.000000e+01   2.997076e-05 
  9.200000e+01   3.180669e-05 
  9.400000e+01   2.551575e-05 
  9.600000e+01   2.670857e-05 
  9.800000e+01   3.211856e-05 
  1.000000e+02   2.765165e-05 
  1.020000e+02   2.546926e-05 
  1.040000e+02   2.587111e-05 
  1.060000e+02   2.631339e-05 
  1.080000e+02   3.244470e-05 
  1.100000e+02   3.792120e-05 
  1.120000e+02   3.384189e-05 
  1.140000e+02   3.288907e-05 
  1.160000e+02   3.197969e-05 
  1.180000e+02   3.586216e-05 
  1.200000e+02   5.035786e-05 
  1.220000e+02   3.787109e-05 
  1.240000e+02   3.549598e-05 
  1.260000e+02   3.700133e-05 
  1.280000e+02   3.317673e-05 
  1.300000e+02   2.747940e-05 
  1.320000e+02   3.269605e-05 
  1.340000e+02   3.936675e-05 
  1.360000e+02   3.572839e-05 
  1.380000e+02   3.099506e-05 
  1.400000e+02   2.895132e-05 
  1.420000e+02   2.850299e-05 
  1.440000e+02   3.212200e-05 
  1.460000e+02   3.961913e-05 
  1.480000e+02   4.248422e-05 
  1.500000e+02   3.701186e-05 
  1.520000e+02   3.517196e-05 
  1.540000e+02   3.303928e-05 
  1.560000e+02   3.024278e-05 
  1.580000e+02   3.201470e-05 
  1.600000e+02   3.194743e-05 
  1.620000e+02   3.301170e-05 
  1.640000e+02   3.165209e-05 
  1.660000e+02   2.928776e-05 
  1.680000e+02   3.074368e-05 
  1.700000e+02   3.047764e-05 
  1.720000e+02   2.987277e-05 
  1.740000e+02   3.445361e-05 
  1.760000e+02   3.061571e-05 
  1.780000e+02   4.597365e-05 
  1.800000e+02   7.995181e-05 
  1.820000e+02   4.691519e-05 
  1.840000e+02   3.477179e-05 
  1.860000e+02   3.474508e-05 
  1.880000e+02   2.955112e-05 
  1.900000e+02   2.848895e-05 
  1.920000e+02   3.026071e-05 
  1.940000e+02   3.636001e-05 
  1.960000e+02   3.711600e-05 
  1.980000e+02   3.719412e-05 
  2.000000e+02   3.053059e-05 
  2.020000e+02   2.871633e-05 
  2.040000e+02   2.691258e-05 
  2.060000e+02   3.241059e-05 
  2.080000e+02   3.485859e-05 
  2.100000e+02   3.371746e-05 
  2.120000e+02   3.219328e-05 
  2.140000e+02   3.151798e-05 
  2.160000e+02   3.290843e-05 
  2.180000e+02   3.415711e-05 
  2.200000e+02   2.839140e-05 
  2.220000e+02   2.485047e-05 
  2.240000e+02   2.996726e-05 
  2.260000e+02   3.058567e-05 
  2.280000e+02   2.944158e-05 
  2.300000e+02   3.116078e-05 
  2.320000e+02   3.665466e-05 
  2.340000e+02   3.590050e-05 
  2.360000e+02   3.243687e-05 
  2.380000e+02   3.278781e-05 
  2.400000e+02   3.764265e-05 
  2.420000e+02   2.995302e-05 
  2.440000e+02   2.829122e-05 
  2.460000e+02   3.246364e-05 
  2.480000e+02   3.485642e-05 
  2.500000e+02   3.695384e-05 
  2.520000e+02   3.091158e-05 
  2.540000e+02   3.008370e-05 
  2.560000e+02   3.233770e-05 
  2.580000e+02   2.453376e-05 
  2.600000e+02   2.223161e-05 
  2.620000e+02   2.838231e-05 
  2.640000e+02   2.806421e-05 
  2.660000e+02   2.990920e-05 
  2.680000e+02   2.719551e-05 
  2.700000e+02   2.686568e-05 
  2.720000e+02   2.839412e-05 
  2.740000e+02   2.768445e-05 
  2.760000e+02   3.023636e-05 
  2.780000e+02   3.278544e-05 
  2.800000e+02   3.063607e-05 
  2.820000e+02   2.887580e-05 
  2.840000e+02   2.936308e-05 
  2.860000e+02   2.802504e-05 
  2.880000e+02   3.243222e-05 
  2.900000e+02   3.192189e-05 
  2.920000e+02   2.544738e-05 
  2.940000e+02   2.797607e-05 
  2.960000e+02   3.116473e-05 
  2.980000e+02   2.581523e-05 
  3.000000e+02   3.086542e-05 
  3.020000e+02   3.189498e-05 
  3.040000e+02   3.402035e-05 
  3.060000e+02   3.450579e-05 
  3.080000e+02   2.724850e-05 
  3.100000e+02   2.713050e-05 
  3.120000e+02   3.308746e-05 
  3.140000e+02   3.257746e-05 
  3.160000e+02   3.639424e-05 
  3.180000e+02   3.043526e-05 
  3.200000e+02   2.654291e-05 
  3.220000e+02   3.385298e-05 
  3.240000e+02   3.158283e-05 
  3.260000e+02   3.251559e-05 
  3.280000e+02   3.382193e-05 
  3.300000e+02   3.423992e-05 
  3.320000e+02   3.240242e-05 
  3.340000e+02   3.252102e-05 
  3.360000e+02   3.847401e-05 
  3.380000e+02   2.847150e-05 
  3.400000e+02   2.837976e-05 
  3.420000e+02   2.548457e-05 
  3.440000e+02   3.538466e-05 
  3.460000e+02   3.643450e-05 
  3.480000e+02   2.657383e-05 
  3.500000e+02   2.981624e-05 
  3.520000e+02   2.904540e-05 
  3.540000e+02   2.669101e-05 
  3.560000e+02   2.431783e-05 
  3.580000e+02   3.339401e-05 
  3.600000e+02   3.749273e-05 
  3.620000e+02   3.046436e-05 
  3.640000e+02   2.600070e-05 
  3.660000e+02   2.976199e-05 
  3.680000e+02   3.394580e-05 
  3.700000e+02   3.387983e-05 
  3.720000e+02   3.396213e-05 
  3.740000e+02   3.684271e-05 
  3.760000e+02   3.322703e-05 
  3.780000e+02   2.529866e-05 
  3.800000e+02   3.330447e-05 
  3.820000e+02   3.417898e-05 
  3.840000e+02   3.174375e-05 
  3.860000e+02   3.084167e-05 
  3.880000e+02   3.113471e-05 
  3.900000e+02   3.294231e-05 
  3.920000e+02   3.643114e-05 
  3.940000e+02   4.029080e-05 
  3.960000e+02   3.680144e-05 
  3.980000e+02   3.297500e-05 
  4.000000e+02   3.458865e-05 
  4.020000e+02   3.418769e-05 
  4.040000e+02   3.076918e-05 
  4.060000e+02   2.667671e-05 
  4.080000e+02   2.786095e-05 
  4.100000e+02   3.233347e-05 
  4.120000e+02   2.995405e-05 
  4.140000e+02   2.964928e-05 
  4.160000e+02   3.517186e-05 
  4.180000e+02   3.415252e-05 
  4.200000e+02   3.549638e-05 
  4.220000e+02   3.724478e-05 
  4.240000e+02   3.106788e-05 
  4.260000e+02   2.788260e-05 
  4.280000e+02   3.141195e-05 
  4.300000e+02   3.507423e-05 
  4.320000e+02   3.446018e-05 
  4.340000e+02   3.603748e-05 
  4.360000e+02   3.111605e-05 
  4.380000e+02   3.574898e-05 
  4.400000e+02   3.029454e-05 
  4.420000e+02   2.802053e-05 
  4.440000e+02   3.193877e-05 
  4.460000e+02   3.191754e-05 
  4.480000e+02   3.372152e-05 
  4.500000e+02   2.368793e-05 
  4.520000e+02   2.785497e-05 
  4.540000e+02   3.689437e-05 
  4.560000e+02   3.652341e-05 
  4.580000e+02   3.946120e-05 
  4.600000e+02   3.319107e-05 
  4.620000e+02   3.100812e-05 
  4.640000e+02   3.263471e-05 
  4.660000e+02   2.867909e-05 
  4.680000e+02   3.624096e-05 
  4.700000e+02   3.559656e-05 
  4.720000e+02   3.194791e-05 
  4.740000e+02   3.078004e-05 
  4.760000e+02   3.583288e-05 
  4.780000e+02   2.978851e-05 
  4.800000e+02   2.971343e-05 
  4.820000e+02   2.626795e-05 
  4.840000e+02   2.330425e-05 
  4.860000e+02   3.241965e-05 
  4.880000e+02   3.114296e-05 
  4.900000e+02   2.964997e-05 
  4.920000e+02   2.984340e-05 
  4.940000e+02   3.318749e-05 
  4.960000e+02   3.690280e-05 
  4.980000e+02   3.625802e-05 
  5.000000e+02   3.021263e-05 
  5.020000e+02   3.413373e-05 
  5.040000e+02   3.436751e-05 
  5.060000e+02   2.897956e-05 
  5.080000e+02   2.493288e-05 
  5.100000e+02   2.684633e-05 
  5.120000e+02   3.167038e-05 
  5.140000e+02   2.971545e-05 
  5.160000e+02   3.620123e-05 
  5.180000e+02   4.202067e-05 
  5.200000e+02   4.178141e-05 
  5.220000e+02   3.959654e-05 
  5.240000e+02   3.413103e-05 
  5.260000e+02   2.983413e-05 
  5.280000e+02   2.906600e-05 
  5.300000e+02   2.899874e-05 
  5.320000e+02   3.282247e-05 
  5.340000e+02   3.997039e-05 
  5.360000e+02   3.616462e-05 
  5.380000e+02   3.528489e-05 
  5.400000e+02   3.503321e-05 
  5.420000e+02   3.350261e-05 
  5.440000e+02   3.632901e-05 
  5.460000e+02   3.896616e-05 
  5.480000e+02   3.348807e-05 
  5.500000e+02   3.157121e-05 
  5.520000e+02   3.289503e-05 
  5.540000e+02   3.618817e-05 
  5.560000e+02   3.968712e-05 
  5.580000e+02   3.374496e-05 
  5.600000e+02   3.515302e-05 
  5.620000e+02   3.399044e-05 
  5.640000e+02   2.971171e-05 
  5.660000e+02   3.671453e-05 
  5.680000e+02   4.227407e-05 
  5.700000e+02   3.159290e-05 
  5.720000e+02   3.550529e-05 
  5.740000e+02   3.780766e-05 
  5.760000e+02   3.366971e-05 
  5.780000e+02   3.078315e-05 
  5.800000e+02   3.167247e-05 
  5.820000e+02   3.143679e-05 
  5.840000e+02   2.812152e-05 
  5.860000e+02   3.197443e-05 
  5.880000e+02   3.845273e-05 
  5.900000e+02   3.774909e-05 
  5.920000e+02   3.967646e-05 
  5.940000e+02   3.613428e-05 
  5.960000e+02   3.355918e-05 
  5.980000e+02   3.757044e-05 
  6.000000e+02   4.024347e-05 
  6.020000e+02   3.739561e-05 
  6.040000e+02   3.078312e-05 
  6.060000e+02   3.613770e-05 
  6.080000e+02   3.025545e-05 
  6.100000e+02   2.994421e-05 
  6.120000e+02   3.100507e-05 
  6.140000e+02   3.198123e-05 
  6.160000e+02   2.990384e-05 
  6.180000e+02   3.490409e-05 
  6.200000e+02   3.813973e-05 
  6.220000e+02   3.596580e-05 
  6.240000e+02   3.054507e-05 
  6.260000e+02   2.585826e-05 
  6.280000e+02   3.005847e-05 
  6.300000e+02   3.407361e-05 
  6.320000e+02   3.724101e-05 
  6.340000e+02   3.736232e-05 
  6.360000e+02   4.015577e-05 
  6.380000e+02   3.696020e-05 
  6.400000e+02   2.950223e-05 
  6.420000e+02   3.201643e-05 
  6.440000e+02   3.771443e-05 
  6.460000e+02   4.000477e-05 
  6.480000e+02   3.771906e-05 
  6.500000e+02   4.241764e-05 
  6.520000e+02   3.807568e-05 
  6.540000e+02   3.218238e-05 
  6.560000e+02   3.273979e-05 
  6.580000e+02   3.364394e-05 
  6.600000e+02   3.258790e-05 
  6.620000e+02   3.093225e-05 
  6.640000e+02   2.875403e-05 
  6.660000e+02   2.695540e-05 
  6.680000e+02   2.897627e-05 
  6.700000e+02   3.316473e-05 
  6.720000e+02   2.992665e-05 
  6.740000e+02   3.678862e-05 
  6.760000e+02   3.069429e-05 
  6.780000e+02   2.966530e-05 
  6.800000e+02   3.347281e-05 
  6.820000e+02   2.707887e-05 
  6.840000e+02   2.863859e-05 
  6.860000e+02   3.710153e-05 
  6.880000e+02   3.637465e-05 
  6.900000e+02   3.522151e-05 
  6.920000e+02   3.184760e-05 
  6.940000e+02   2.596385e-05 
  6.960000e+02   2.811510e-05 
  6.980000e+02   3.055685e-05 
  7.000000e+02   2.709447e-05 
  7.020000e+02   2.730508e-05 
  7.040000e+02   3.621417e-05 
  7.060000e+02   2.873550e-05 
  7.080000e+02   2.317891e-05 
  7.100000e+02   3.032401e-05 
  7.120000e+02   3.133212e-05 
  7.140000e+02   3.594395e-05 
  7.160000e+02   3.477358e-05 
  7.180000e+02   3.400140e-05 
  7.200000e+02   3.655583e-05 
  7.220000e+02   3.349095e-05 
  7.240000e+02   2.786376e-05 
  7.260000e+02   2.914145e-05 
  7.280000e+02   2.599842e-05 
  7.300000e+02   2.763200e-05 
  7.320000e+02   3.317867e-05 
  7.340000e+02   3.285824e-05 
  7.360000e+02   3.581241e-05 
  7.380000e+02   3.223164e-05 
  7.400000e+02   3.528150e-05 
  7.420000e+02   3.247560e-05 
  7.440000e+02   3.084336e-05 
  7.460000e+02   3.615037e-05 
  7.480000e+02   3.697943e-05 
  7.500000e+02   3.151198e-05 
  7.520000e+02   3.098378e-05 
  7.540000e+02   3.371653e-05 
  7.560000e+02   3.868041e-05 
  7.580000e+02   3.194227e-05 
  7.600000e+02   3.472847e-05 
  7.620000e+02   3.491395e-05 
  7.640000e+02   3.366809e-05 
  7.660000e+02   3.784912e-05 
  7.680000e+02   3.844702e-05 
  7.700000e+02   2.998621e-05 
  7.720000e+02   3.301517e-05 
  7.740000e+02   3.727468e-05 
  7.760000e+02   3.047308e-05 
  7.780000e+02   3.380224e-05 
  7.800000e+02   3.471012e-05 
  7.820000e+02   3.340894e-05 
  7.840000e+02   3.792111e-05 
  7.860000e+02   3.913827e-05 
  7.880000e+02   3.814427e-05 
  7.900000e+02   3.842788e-05 
  7.920000e+02   3.332337e-05 
  7.940000e+02   3.650457e-05 
  7.960000e+02   3.645175e-05 
  7.980000e+02   3.904775e-05 
  8.000000e+02   3.586650e-05 
  8.020000e+02   3.662061e-05 
  8.040000e+02   3.195462e-05 
  8.060000e+02   3.212766e-05 
  8.080000e+02   3.786493e-05 
  8.100000e+02   3.688708e-05 
  8.120000e+02   3.579674e-05 
  8.140000e+02   3.528091e-05 
  8.160000e+02   2.993189e-05 
  8.180000e+02   3.629133e-05 
  8.200000e+02   3.999595e-05 
  8.220000e+02   3.349668e-05 
  8.240000e+02   3.145547e-05 
  8.260000e+02   3.732857e-05 
  8.280000e+02   3.490682e-05 
  8.300000e+02   3.357118e-05 
  8.320000e+02   3.366088e-05 
  8.340000e+02   3.049507e-05 
  8.360000e+02   3.488156e-05 
  8.380000e+02   3.988956e-05 
  8.400000e+02   3.805388e-05 
  8.420000e+02   3.379768e-05 
  8.440000e+02   3.109314e-05 
  8.460000e+02   3.071753e-05 
  8.480000e+02   3.832579e-05 
  8.500000e+02   3.916801e-05 
  8.520000e+02   3.343145e-05 
  8.540000e+02   3.400070e-05 
  8.560000e+02   3.138938e-05 
  8.580000e+02   3.041876e-05 
  8.600000e+02   3.142370e-05 
  8.620000e+02   3.267055e-05 
  8.640000e+02   3.248275e-05 
  8.660000e+02   3.375299e-05 
  8.680000e+02   3.417826e-05 
  8.700000e+02   3.550545e-05 
  8.720000e+02   3.612363e-05 
  8.740000e+02   3.112125e-05 
  8.760000e+02   3.304756e-05 
  8.780000e+02   3.769026e-05 
  8.800000e+02   3.578720e-05 
  8.820000e+02   3.850559e-05 
  8.840000e+02   3.317803e-05 
  8.860000e+02   3.100674e-05 
  8.880000e+02   3.356489e-05 
  8.900000e+02   3.594035e-05 
  8.920000e+02   3.594499e-05 
  8.940000e+02   3.713814e-05 
  8.960000e+02   3.279239e-05 
  8.980000e+02   3.091110e-05 
  9.000000e+02   3.696325e-05 
  9.020000e+02   3.579567e-05 
  9.040000e+02   3.681627e-05 
  9.060000e+02   3.488287e-05 
  9.080000e+02   3.216841e-05 
  9.100000e+02   3.528889e-05 
  9.120000e+02   4.334696e-05 
  9.140000e+02   4.254956e-05 
  9.160000e+02   3.608776e-05 
  9.180000e+02   3.999996e-05 
  9.200000e+02   3.830847e-05 
  9.220000e+02   3.195346e-05 
  9.240000e+02   3.385891e-05 
  9.260000e+02   3.390166e-05 
  9.280000e+02   3.534434e-05 
  9.300000e+02   3.499720e-05 
  9.320000e+02   3.899902e-05 
  9.340000e+02   3.562814e-05 
  9.360000e+02   3.751641e-05 
  9.380000e+02   3.913650e-05 
  9.400000e+02   4.478454e-05 
  9.420000e+02   4.004539e-05 
  9.440000e+02   3.902855e-05 
  9.460000e+02   4.621703e-05 
  9.480000e+02   4.463960e-05 
  9.500000e+02   3.646645e-05 
  9.520000e+02   3.757562e-05 
  9.540000e+02   3.491891e-05 
  9.560000e+02   3.768025e-05 
  9.580000e+02   4.344783e-05 
  9.600000e+02   4.189860e-05 
  9.620000e+02   3.729761e-05 
  9.640000e+02   3.598859e-05 
  9.660000e+02   3.820413e-05 
  9.680000e+02   3.898693e-05 
  9.700000e+02   3.666123e-05 
  9.720000e+02   3.318947e-05 
  9.740000e+02   3.709561e-05 
  9.760000e+02   4.074937e-05 
  9.780000e+02   3.932118e-05 
  9.800000e+02   3.838873e-05 
  9.820000e+02   3.463613e-05 
  9.840000e+02   3.583787e-05 
  9.860000e+02   3.737032e-05 
  9.880000e+02   3.955872e-05 
  9.900000e+02   4.091559e-05 
  9.920000e+02   3.833272e-05 
  9.940000e+02   2.997986e-05 
  9.960000e+02   3.869314e-05 
  9.980000e+02   4.055474e-05 
  1.000000e+03   3.999293e-05 
  1.002000e+03   3.434418e-05 
  1.004000e+03   3.235230e-05 
  1.006000e+03   3.403743e-05 
  1.008000e+03   3.805918e-05 
  1.010000e+03   3.873180e-05 
  1.012000e+03   4.313590e-05 
  1.014000e+03   4.135966e-05 
  1.016000e+03   3.740499e-05 
  1.018000e+03   4.012105e-05 
  1.020000e+03   4.047268e-05 
  1.022000e+03   4.068651e-05 
  1.024000e+03   4.191795e-05 
  1.026000e+03   4.077726e-05 
  1.028000e+03   3.808284e-05 
  1.030000e+03   3.388467e-05 
  1.032000e+03   4.176655e-05 
  1.034000e+03   3.950122e-05 
  1.036000e+03   4.408244e-05 
  1.038000e+03   3.672776e-05 
  1.040000e+03   3.124559e-05 
  1.042000e+03   3.698816e-05 
  1.044000e+03   4.001685e-05 
  1.046000e+03   4.199242e-05 
  1.048000e+03   3.608807e-05 
  1.050000e+03   4.007574e-05 
  1.052000e+03   3.970975e-05 
  1.054000e+03   3.748578e-05 
  1.056000e+03   3.785306e-05 
  1.058000e+03   2.719514e-05 
  1.060000e+03   2.984966e-05 
  1.062000e+03   3.148869e-05 
  1.064000e+03   3.646730e-05 
  1.066000e+03   3.720458e-05 
  1.068000e+03   3.700013e-05 
  1.070000e+03   3.461300e-05 
  1.072000e+03   3.313979e-05 
  1.074000e+03   4.062819e-05 
  1.076000e+03   4.727451e-05 
  1.078000e+03   3.792782e-05 
  1.080000e+03   3.635155e-05 
  1.082000e+03   4.225759e-05 
  1.084000e+03   4.087107e-05 
  1.086000e+03   3.318621e-05 
  1.088000e+03   3.728832e-05 
  1.090000e+03   4.067745e-05 
  1.092000e+03   3.875752e-05 
  1.094000e+03   3.961241e-05 
  1.096000e+03   4.553641e-05 
  1.098000e+03   4.544828e-05 
  1.100000e+03   3.571959e-05 
  1.102000e+03   3.903401e-05 
  1.104000e+03   4.599891e-05 
  1.106000e+03   4.563833e-05 
  1.108000e+03   3.828204e-05 
  1.110000e+03   3.684896e-05 
  1.112000e+03   5.124553e-05 
  1.114000e+03   4.542715e-05 
  1.116000e+03   4.990728e-05 
  1.118000e+03   5.182346e-05 
  1.120000e+03   5.112836e-05 
  1.122000e+03   4.401639e-05 
  1.124000e+03   3.509703e-05 
  1.126000e+03   3.496964e-05 
  1.128000e+03   3.736702e-05 
  1.130000e+03   3.954297e-05 
  1.132000e+03   3.792701e-05 
  1.134000e+03   4.196005e-05 
  1.136000e+03   3.827238e-05 
  1.138000e+03   3.752600e-05 
  1.140000e+03   3.643496e-05 
  1.142000e+03   3.889380e-05 
  1.144000e+03   4.020129e-05 
  1.146000e+03   3.358604e-05 
  1.148000e+03   3.659335e-05 
  1.150000e+03   3.518708e-05 
  1.152000e+03   4.152612e-05 
  1.154000e+03   3.789990e-05 
  1.156000e+03   3.871021e-05 
  1.158000e+03   4.919334e-05 
  1.160000e+03   5.022145e-05 
  1.162000e+03   3.814751e-05 
  1.164000e+03   3.803240e-05 
  1.166000e+03   4.287310e-05 
  1.168000e+03   4.464591e-05 
  1.170000e+03   4.427829e-05 
  1.172000e+03   4.619736e-05 
  1.174000e+03   4.104998e-05 
  1.176000e+03   3.828249e-05 
  1.178000e+03   3.715443e-05 
  1.180000e+03   3.932662e-05 
  1.182000e+03   3.533685e-05 
  1.184000e+03   4.110252e-05 
  1.186000e+03   3.862550e-05 
  1.188000e+03   3.646962e-05 
  1.190000e+03   3.783095e-05 
  1.192000e+03   3.668584e-05 
  1.194000e+03   4.241462e-05 
  1.196000e+03   4.376827e-05 
  1.198000e+03   4.128913e-05 
  1.200000e+03   3.756612e-05 
  1.202000e+03   4.428523e-05 
  1.204000e+03   4.456920e-05 
  1.206000e+03   4.352656e-05 
  1.208000e+03   4.010797e-05 
  1.210000e+03   4.222711e-05 
  1.212000e+03   4.591451e-05 
  1.214000e+03   4.981447e-05 
  1.216000e+03   4.380194e-05 
  1.218000e+03   4.319110e-05 
  1.220000e+03   4.351004e-05 
  1.222000e+03   4.128701e-05 
  1.224000e+03   4.039768e-05 
  1.226000e+03   4.424431e-05 
  1.228000e+03   4.923934e-05 
  1.230000e+03   5.394759e-05 
  1.232000e+03   4.844219e-05 
  1.234000e+03   4.760261e-05 
  1.236000e+03   4.055657e-05 
  1.238000e+03   4.430808e-05 
  1.240000e+03   4.855758e-05 
  1.242000e+03   4.717410e-05 
  1.244000e+03   4.115963e-05 
  1.246000e+03   4.426224e-05 
  1.248000e+03   5.241193e-05 
  1.250000e+03   4.499097e-05 
  1.252000e+03   4.949988e-05 
  1.254000e+03   6.108843e-05 
  1.256000e+03   5.745405e-05 
  1.258000e+03   5.014834e-05 
  1.260000e+03   5.120398e-05 
  1.262000e+03   4.493465e-05 
  1.264000e+03   3.784685e-05 
  1.266000e+03   4.043348e-05 
  1.268000e+03   3.863277e-05 
  1.270000e+03   4.020510e-05 
  1.272000e+03   4.005935e-05 
  1.274000e+03   4.067898e-05 
  1.276000e+03   4.618230e-05 
  1.278000e+03   5.081148e-05 
  1.280000e+03   3.910188e-05 
  1.282000e+03   4.230960e-05 
  1.284000e+03   4.464117e-05 
  1.286000e+03   4.158859e-05 
  1.288000e+03   3.882145e-05 
  1.290000e+03   4.425377e-05 
  1.292000e+03   3.899682e-05 
  1.294000e+03   4.510558e-05 
  1.296000e+03   5.263909e-05 
  1.298000e+03   4.642128e-05 
  1.300000e+03   4.594974e-05 
  1.302000e+03   5.275337e-05 
  1.304000e+03   4.705435e-05 
  1.306000e+03   4.273411e-05 
  1.308000e+03   4.632772e-05 
  1.310000e+03   4.565961e-05 
  1.312000e+03   4.590824e-05 
  1.314000e+03   4.618443e-05 
  1.316000e+03   4.732643e-05 
  1.318000e+03   4.759809e-05 
  1.320000e+03   5.184679e-05 
  1.322000e+03   5.885067e-05 
  1.324000e+03   4.555056e-05 
  1.326000e+03   3.724799e-05 
  1.328000e+03   4.326358e-05 
  1.330000e+03   4.425010e-05 
  1.332000e+03   4.573730e-05 
  1.334000e+03   4.931272e-05 
  1.336000e+03   5.236573e-05 
  1.338000e+03   4.992123e-05 
  1.340000e+03   4.636865e-05 
  1.342000e+03   3.958549e-05 
  1.344000e+03   4.423876e-05 
  1.346000e+03   4.726802e-05 
  1.348000e+03   4.580603e-05 
  1.350000e+03   4.264932e-05 
  1.352000e+03   4.366828e-05 
  1.354000e+03   5.022574e-05 
  1.356000e+03   4.105590e-05 
  1.358000e+03   5.460765e-05 
  1.360000e+03   4.938211e-05 
  1.362000e+03   4.564011e-05 
  1.364000e+03   4.423929e-05 
  1.366000e+03   4.699665e-05 
  1.368000e+03   5.515656e-05 
  1.370000e+03   4.554309e-05 
  1.372000e+03   4.357937e-05 
  1.374000e+03   5.014644e-05 
  1.376000e+03   5.434691e-05 
  1.378000e+03   4.496413e-05 
  1.380000e+03   4.043009e-05 
  1.382000e+03   4.066263e-05 
  1.384000e+03   5.022034e-05 
  1.386000e+03   4.295938e-05 
  1.388000e+03   4.975767e-05 
  1.390000e+03   5.745138e-05 
  1.392000e+03   6.546082e-05 
  1.394000e+03   5.443821e-05 
  1.396000e+03   4.716763e-05 
  1.398000e+03   4.406103e-05 
  1.400000e+03   4.644121e-05 
  1.402000e+03   5.339723e-05 
  1.404000e+03   5.263074e-05 
  1.406000e+03   4.794161e-05 
  1.408000e+03   5.080448e-05 
  1.410000e+03   5.538301e-05 
  1.412000e+03   4.658341e-05 
  1.414000e+03   5.114415e-05 
  1.416000e+03   5.396724e-05 
  1.418000e+03   4.811237e-05 
  1.420000e+03   4.925195e-05 
  1.422000e+03   4.451563e-05 
  1.424000e+03   4.288250e-05 
  1.426000e+03   5.099217e-05 
  1.428000e+03   5.447734e-05 
  1.430000e+03   5.167352e-05 
  1.432000e+03   4.517295e-05 
  1.434000e+03   5.659084e-05 
  1.436000e+03   4.918452e-05 
  1.438000e+03   4.922859e-05 
  1.440000e+03   4.932675e-05 
  1.442000e+03   5.417953e-05 
  1.444000e+03   5.252349e-05 
  1.446000e+03   5.944666e-05 
  1.448000e+03   6.000070e-05 
  1.450000e+03   5.140901e-05 
  1.452000e+03   5.448118e-05 
  1.454000e+03   5.820133e-05 
  1.456000e+03   5.932983e-05 
  1.458000e+03   5.918532e-05 
  1.460000e+03   5.198916e-05 
  1.462000e+03   4.675034e-05 
  1.464000e+03   4.922912e-05 
  1.466000e+03   4.305242e-05 
  1.468000e+03   4.253556e-05 
  1.470000e+03   5.460145e-05 
  1.472000e+03   5.448216e-05 
  1.474000e+03   5.074021e-05 
  1.476000e+03   5.812217e-05 
  1.478000e+03   5.353443e-05 
  1.480000e+03   5.379467e-05 
  1.482000e+03   5.372681e-05 
  1.484000e+03   4.872327e-05 
  1.486000e+03   5.126562e-05 
  1.488000e+03   5.864793e-05 
  1.490000e+03   6.077257e-05 
  1.492000e+03   5.834696e-05 
  1.494000e+03   5.598456e-05 
  1.496000e+03   4.951431e-05 
  1.498000e+03   6.219219e-05 
  1.500000e+03   6.110215e-05 
  1.502000e+03   5.421090e-05 
  1.504000e+03   5.724598e-05 
  1.506000e+03   5.577345e-05 
  1.508000e+03   5.741304e-05 
  1.510000e+03   5.154054e-05 
  1.512000e+03   4.261148e-05 
  1.514000e+03   5.436039e-05 
  1.516000e+03   6.176328e-05 
  1.518000e+03   5.886228e-05 
  1.520000e+03   5.417468e-05 
  1.522000e+03   5.345723e-05 
  1.524000e+03   5.056191e-05 
  1.526000e+03   4.735129e-05 
  1.528000e+03   5.512029e-05 
  1.530000e+03   5.676988e-05 
  1.532000e+03   5.809404e-05 
  1.534000e+03   6.655004e-05 
  1.536000e+03   6.145357e-05 
  1.538000e+03   5.963246e-05 
  1.540000e+03   6.072687e-05 
  1.542000e+03   5.331770e-05 
  1.544000e+03   5.796026e-05 
  1.546000e+03   6.078211e-05 
  1.548000e+03   5.865849e-05 
  1.550000e+03   4.956434e-05 
  1.552000e+03   5.170551e-05 
  1.554000e+03   5.036746e-05 
  1.556000e+03   5.664919e-05 
  1.558000e+03   5.533946e-05 
  1.560000e+03   6.309119e-05 
  1.562000e+03   5.999560e-05 
  1.564000e+03   5.044850e-05 
  1.566000e+03   5.183843e-05 
  1.568000e+03   5.398596e-05 
  1.570000e+03   5.767788e-05 
  1.572000e+03   5.632024e-05 
  1.574000e+03   5.974598e-05 
  1.576000e+03   6.167583e-05 
  1.578000e+03   6.340147e-05 
  1.580000e+03   6.612875e-05 
  1.582000e+03   6.368886e-05 
  1.584000e+03   5.845953e-05 
  1.586000e+03   6.062652e-05 
  1.588000e+03   5.555360e-05 
  1.590000e+03   5.593892e-05 
  1.592000e+03   5.894952e-05 
  1.594000e+03   6.100722e-05 
  1.596000e+03   6.357042e-05 
  1.598000e+03   5.840004e-05 
  1.600000e+03   6.281220e-05 
